# SIMPLE = T / Written by IDL: Sun Jul 7 14:43:49 2019
# BITPIX = -32 / IEEE single precision floating point
# NAXIS = 2 / number of data axes
# NAXIS1 = 311 /Number of positions along axis 1
# NAXIS2 = 2835 /Number of positions along axis 2
# EXTEND = T / FITS dataset may contain extensions
# COMMENT FITS (Flexible Image Transport System) format defined in Astronomy and
# COMMENT Astrophysics Supplement Series v44/p363, v44/p371, v73/p359, v73/p365.
# COMMENT Contact the NASA Science Office of Standards and Technology for the
# COMMENT FITS Definition document #100 and other FITS information.
# BZERO = 0 / offset data range to that of unsigned short
# BSCALE = 1 / default scaling factor
# OBJECT = 'ZTF19aauiref' / object title
# OBSERVER= 'Lin Yan ' / observer
# IMGTYPE = 'object ' / observation type
# GAIN = 0.72 / e-/adu
# RON = 2.5 / system noise e-
# DICHROIC= 'D55 ' / Dichroic
# APERTURE= '1.5 ' / aperture (arcsecs)
# TURRET = 'APERTURE' / turret position
# LAMPS = '0000000 ' / lamps: D-FeAr-Hg-Ar-Ne-He-InCand
# BFILTER = 'OPEN ' / filter wheel
# OEXPTIME= 600. / originaly req. exposure time
# EXPTIME = 600. / actual exposure time
# UTSHUT = '2019-07-03T06:18:05.332' / UT shutter open
# DATE = '2019-07-03T06:28:26' / file creation date (YYYY-MM-DDThh:mm:ss UTC)
# NAMPSXY = '1 1 ' / number of amplifiers in y x
# CCDSUM = '1 1 ' / binning in x y
# ASEC1 = '[1:460,1:2835]' / amplifier section 1(LL)
# BSEC1 = '[411:460,1:2835]' / bias section 1(LL)
# CSEC1 = '[1:410,1:2835]' / ccd section 1(LL)
# DSEC1 = '[1:410,1:2835]' / data section 1(LL)
# TSEC1 = '[51:410,1:2835]' / trim section 1(LL)
# ROISEC = '[890:1249,565:3399]' / roi section
# DETID = 'CCD44-82_1' / detector ID
# DETNUM = '1 ' / Detector Number
# DETNAM = 'CCD44-82' / detector name
# FPA = 'DBSP_BLUE' / focal plan array
# UTC = '184 06:18:05.3' / <elapsed days> <time-obs>
# UT = '06:18:05.3' / time-obs
# OBSLST = '17:14:35.3' / lst-obs
# RA = '14:05:49.16' / Right Ascencion
# DEC = '+33:27:49.2' / Declination
# HOURANG = 'W03:07:55.5' / Hour angle, TCS format
# HA = '+03:07:55.5' / Hour angle
# AIRMASS = '1.284 ' / Airmass
# TELID = '200 ' / telescope ID
# TELFOCUS= '42.98 mm' / focus position
# CASSPA = '76.00 ' / cass ring angle
# PARALLAC= '76.42 ' / parallactic angle
# DHE = 'SDSU Gen III' / controller info
# CCDTEMP = '161.68 ' / detector mount temp
# SOFTVER = '3.4 ' / software version
# HDR_REV = '4.3 ' / gfits version
# GCOMMENT= ' ' / comment
# ANGLE = '27 deg 17 min' / Grating Angle
# GRATING = '600/4000' / //lines/mm & Blaze
# BIAS = 'bias_DBSP_BLUE_11.fits' / bias frame used
# OVERSCAN= -4 / additional overscan offset applied
# FLAT = 'flat_DBSP_BLUE_11_1.5_D55_600_4000.fits' / flatfield frame used
# FLATSECT= '[150:350]' / flatfield collapse section
# SIGCLIP = 15.0000 / LA Cosmic sigclip
# SIGFRAC = 0.0500000 / LA Cosmic sigfrac
# OBJLIM = 0.500000 / LA Cosmic objlim
# NITER = 4 / LA Cosmic niter
# NCOSMICS= 163 / number of cosmics found
# DATE-OBS= '2019-07-03' / UT date of observation (from UTSHUT keyword)
# MJD = 58667.2625617 / MJD corresponding to UTSHUT
# DISPLINE = 1480 / column/row along dispersion axis to find trace
# NDISP = 50 / number of columns/rows to sum to find and trace profile
# OPTIMALPROFILE = none / number of columns/rows to sum to find and trace profile
# WIDTH_LOCALPROFILE = 200 / width in pixels of local extraction profile
# X_GLOBPROF = [500,2000] / dispersion pixel range for global profile
# OBJ_APER = -7,7 / object extraction aperture
# SKY_APER = -75,-25,13,33 / sky extraction aperture
# ARCFILE1 = arc_DBSP_BLUE_11_0.5_D55_600_4000_FeAr.fits / arc file used
# END
# header info from red frame:
# SIMPLE = T / Written by IDL: Mon Jul 8 14:38:02 2019
# BITPIX = -32 / IEEE single precision floating point
# NAXIS = 2 / number of data axes
# NAXIS1 = 4107 /Number of positions along axis 1
# NAXIS2 = 401 /Number of positions along axis 2
# EXTEND = T / FITS dataset may contain extensions
# COMMENT FITS (Flexible Image Transport System) format defined in Astronomy and
# COMMENT Astrophysics Supplement Series v44/p363, v44/p371, v73/p359, v73/p365.
# COMMENT Contact the NASA Science Office of Standards and Technology for the
# COMMENT FITS Definition document #100 and other FITS information.
# BZERO = 0 / offset data range to that of unsigned short
# BSCALE = 1 / default scaling factor
# OBJECT = 'ZTF19aauiref' / object title
# OBSERVER= 'Lin Yan ' / observer
# IMGTYPE = 'object ' / observation type
# GAIN = 2.8 / e-/adu
# RON = 8.5 / system noise e-
# DICHROIC= 'D55 ' / Dichroic
# APERTURE= '1.5 ' / aperture (arcsecs)
# TURRET = 'APERTURE' / turret position
# LAMPS = '0000000 ' / lamps: D-FeAr-Hg-Ar-Ne-He-InCand
# RFILTER = 'OPEN ' / filter wheel
# OEXPTIME= 600. / originaly req. exposure time
# EXPTIME = 600. / actual exposure time
# UTSHUT = '2019-07-03T06:18:09.148' / UT shutter open
# DATE = '2019-07-03T06:28:32' / file creation date (YYYY-MM-DDThh:mm:ss UTC)
# NAMPSXY = '1 1 ' / number of amplifiers in y x
# CCDSUM = '1 1 ' / binning in x y
# ASEC1 = '[1:4141,1:440]' / amplifier section 1(LL)
# BSEC1 = '[4122:4141,1:440]' / bias section 1(LL)
# CSEC1 = '[1:4121,1:440]' / ccd section 1(LL)
# DSEC1 = '[1:4121,1:440]' / data section 1(LL)
# TSEC1 = '[8:4121,1:440]' / trim section 1(LL)
# ROISEC = '[1:4114,780:1219]' / roi section
# DETID = 'LBNL_4Kx2K_1' / detector ID
# DETNUM = '1 ' / Detector Number
# DETNAM = 'LBNL_4Kx2K' / detector name
# FPA = 'DBSP_RED2' / focal plan array
# UTC = '184 06:18:09.2' / <elapsed days> <time-obs>
# UT = '06:18:09.2' / time-obs
# OBSLST = '17:14:39.1' / lst-obs
# RA = '14:05:49.17' / Right Ascencion
# DEC = '+33:27:49.2' / Declination
# HOURANG = 'W03:07:59.4' / Hour angle, TCS format
# HA = '+03:07:59.4' / Hour angle
# AIRMASS = '1.284 ' / Airmass
# TELID = '200 ' / telescope ID
# TELFOCUS= '42.98 mm' / focus position
# CASSPA = '76.00 ' / cass ring angle
# PARALLAC= '76.42 ' / parallactic angle
# DHE = 'SDSU Gen III' / controller info
# CCDTEMP = '130.016 ' / detector mount temp
# SOFTVER = '3.4 ' / software version
# HDR_REV = '4.3 ' / gfits version
# GCOMMENT= ' ' / comment
# ANGLE = '24 deg 38 min' / Grating Angle
# GRATING = '316/7500' / lines/mm & Blaze
# CRVAL1 = 48.519459
# CRVAL2 = 33.313332
# BIAS = 'bias_DBSP_RED2_11.fits' / bias frame used
# OVERSCAN= 3 / additional overscan offset applied
# FLAT = 'flat_DBSP_RED2_11_1.5_D55_316_7500.fits' / flatfield frame used
# FLATSECT= '[80:280]' / flatfield collapse section
# SIGCLIP = 10.0000 / LA Cosmic sigclip
# SIGFRAC = 0.0500000 / LA Cosmic sigfrac
# OBJLIM = 0.500000 / LA Cosmic objlim
# NITER = 4 / LA Cosmic niter
# NCOSMICS= 1620 / number of cosmics found
# DATE-OBS= '2019-07-03' / UT date of observation (from UTSHUT keyword)
# MJD = 58667.2626058 / MJD corresponding to UTSHUT
# DISPLINE = 1350 / column/row along dispersion axis to find trace
# NDISP = 50 / number of columns/rows to sum to find and trace profile
# OPTIMALPROFILE = none / number of columns/rows to sum to find and trace profile
# WIDTH_LOCALPROFILE = 200 / width in pixels of local extraction profile
# X_GLOBPROF = [500,4000] / dispersion pixel range for global profile
# OBJ_APER = -7,7 / object extraction aperture
# SKY_APER = -35,-12,12,35 / sky extraction aperture
# ARCFILE1 = arc_DBSP_RED2_11_0.5_D55_316_7500_ArNeHe.fits / arc file used
# END
# wave_air           flux            err
# (A)  (erg/s/cm2/A)  (erg/s/cm2/A)
3100.535 1.602e-15 5.35e-16
3101.58 3.791e-16 5.443e-16
3102.625 6.465e-16 5.375e-16
3103.67 -1.044e-15 5.546e-16
3104.715 1.446e-15 5.345e-16
3105.76 5.004e-16 5.291e-16
3106.806 3e-16 4.922e-16
3107.851 3.01e-16 4.883e-16
3108.896 1.54e-16 5.004e-16
3109.942 -2.726e-16 4.901e-16
3110.988 2.735e-18 4.677e-16
3112.032 -1.09e-15 5.185e-16
3113.078 2.258e-16 4.668e-16
3114.124 1.22e-16 4.783e-16
3115.17 -8.948e-16 4.802e-16
3116.215 -1.973e-16 4.8e-16
3117.261 4.418e-16 4.454e-16
3118.308 -4.409e-16 4.505e-16
3119.353 4.161e-16 4.251e-16
3120.399 -6.122e-16 4.296e-16
3121.446 5.058e-16 4.202e-16
3122.492 2.469e-16 4.161e-16
3123.538 2.572e-16 4.315e-16
3124.584 -1.795e-16 4.223e-16
3125.631 -1.101e-15 4.3e-16
3126.677 6.183e-16 3.868e-16
3127.723 5.719e-16 3.951e-16
3128.77 5.51e-16 4.037e-16
3129.817 -3.804e-16 3.912e-16
3130.864 2.177e-16 3.862e-16
3131.91 -9.225e-16 3.949e-16
3132.957 3.273e-16 3.629e-16
3134.004 2.318e-16 3.7e-16
3135.051 4.218e-16 3.381e-16
3136.097 8.168e-16 3.395e-16
3137.145 7.062e-18 3.301e-16
3138.192 -9.529e-16 3.211e-16
3139.239 4.64e-16 3.208e-16
3140.286 -3.736e-16 3.066e-16
3141.334 -3.967e-16 3.221e-16
3142.381 2.204e-16 3.116e-16
3143.428 -3.655e-16 3.066e-16
3144.476 -3.119e-16 3.03e-16
3145.523 -3.391e-16 2.953e-16
3146.571 2.264e-16 2.765e-16
3147.618 2.458e-16 2.652e-16
3148.666 6.209e-17 2.639e-16
3149.714 -5.214e-16 2.735e-16
3150.762 -6.841e-16 2.666e-16
3151.809 -3.915e-17 2.588e-16
3152.858 -2.481e-16 2.549e-16
3153.906 -2.469e-16 2.442e-16
3154.953 -8.057e-17 2.339e-16
3156.002 8.789e-17 2.416e-16
3157.05 3.83e-16 2.284e-16
3158.099 -2.967e-16 2.296e-16
3159.146 -8.822e-17 2.266e-16
3160.195 3.516e-16 2.198e-16
3161.244 -4.633e-16 2.305e-16
3162.292 1.344e-16 2.168e-16
3163.34 1.853e-16 2.175e-16
3164.389 2.388e-16 2.094e-16
3165.438 -6.559e-17 2.232e-16
3166.487 1.598e-17 2.072e-16
3167.535 -1.746e-16 2.026e-16
3168.584 4.992e-17 2.107e-16
3169.634 1.742e-16 2.033e-16
3170.683 2.189e-16 2.049e-16
3171.731 -5.181e-17 1.955e-16
3172.781 -1.517e-16 2.012e-16
3173.83 3.167e-16 1.977e-16
3174.878 -5.631e-17 2.036e-16
3175.928 9.365e-17 2.1e-16
3176.978 1.374e-16 2.066e-16
3178.027 -3.821e-16 2.118e-16
3179.076 -3.985e-16 2.179e-16
3180.126 -1.685e-16 2.125e-16
3181.176 1.912e-16 2.081e-16
3182.226 -2.281e-16 2.196e-16
3183.275 5.405e-17 2.14e-16
3184.325 2.248e-16 2.109e-16
3185.375 2.966e-16 2.205e-16
3186.425 1.676e-16 2.144e-16
3187.474 -3.017e-16 2.153e-16
3188.524 1.609e-16 2.086e-16
3189.575 1.171e-16 2.134e-16
3190.624 1.128e-16 2.128e-16
3191.675 3.737e-19 2.003e-16
3192.725 4.292e-16 1.967e-16
3193.776 -2.311e-16 1.928e-16
3194.825 -2.111e-16 1.968e-16
3195.876 2.994e-17 1.776e-16
3196.927 -2.515e-16 1.725e-16
3197.978 1.173e-16 1.74e-16
3199.027 2.617e-17 1.678e-16
3200.078 -2.086e-16 1.685e-16
3201.129 4.08e-16 1.555e-16
3202.18 -5.53e-17 1.682e-16
3203.23 2.884e-16 1.537e-16
3204.282 -8.431e-17 1.556e-16
3205.333 -1.866e-16 1.447e-16
3206.383 -3.265e-17 1.471e-16
3207.434 -1.321e-16 1.421e-16
3208.486 2.567e-17 1.402e-16
3209.537 -7.634e-17 1.411e-16
3210.588 -1.33e-16 1.436e-16
3211.639 9.206e-18 1.462e-16
3212.691 -5.378e-16 1.379e-16
3213.743 1.185e-16 1.456e-16
3214.793 -9.1e-17 1.384e-16
3215.845 -3.56e-16 1.344e-16
3216.897 1.174e-16 1.336e-16
3217.949 -2.305e-16 1.33e-16
3219.0 2.067e-16 1.364e-16
3220.052 1.058e-16 1.361e-16
3221.104 -1.656e-16 1.341e-16
3222.156 3.149e-16 1.407e-16
3223.207 -1.598e-16 1.366e-16
3224.26 2.679e-17 1.373e-16
3225.312 -3.004e-16 1.363e-16
3226.363 -2.071e-16 1.442e-16
3227.416 -2.067e-17 1.385e-16
3228.468 -3.015e-16 1.352e-16
3229.521 1.018e-16 1.415e-16
3230.573 -8.664e-17 1.371e-16
3231.625 -2.182e-17 1.315e-16
3232.678 -8.025e-17 1.344e-16
3233.731 3.556e-16 1.443e-16
3234.783 -1.792e-16 1.394e-16
3235.835 1.256e-16 1.449e-16
3236.888 2.26e-16 1.437e-16
3237.941 3.809e-17 1.429e-16
3238.994 -3.159e-17 1.36e-16
3240.047 1.574e-16 1.359e-16
3241.1 -1.149e-16 1.35e-16
3242.152 1.137e-16 1.331e-16
3243.205 1.805e-16 1.392e-16
3244.259 -5.119e-18 1.339e-16
3245.312 2.765e-17 1.303e-16
3246.365 2.295e-18 1.291e-16
3247.418 -1.507e-16 1.238e-16
3248.472 -2.082e-16 1.204e-16
3249.525 -6.573e-17 1.16e-16
3250.578 1.408e-17 1.187e-16
3251.632 1.207e-16 1.105e-16
3252.686 -4.757e-17 1.137e-16
3253.74 1.191e-16 1.146e-16
3254.792 1.387e-17 1.09e-16
3255.846 -1.811e-16 1.078e-16
3256.9 5.313e-17 1.017e-16
3257.954 -1.474e-17 1.024e-16
3259.008 -8.014e-17 9.746e-17
3260.062 2.632e-16 9.854e-17
3261.116 1.449e-16 1e-16
3262.17 1.183e-17 9.542e-17
3263.224 -4.939e-17 9.029e-17
3264.278 -1.542e-17 9.303e-17
3265.333 -1.11e-16 8.484e-17
3266.386 1.399e-16 9.179e-17
3267.441 -9.117e-17 8.467e-17
3268.496 -8.771e-17 8.443e-17
3269.549 1.608e-17 8.548e-17
3270.604 2.379e-17 8.502e-17
3271.659 -2.72e-17 8.079e-17
3272.714 -1.821e-16 8.055e-17
3273.768 -3.081e-18 7.761e-17
3274.823 -5.633e-17 8.178e-17
3275.878 -8.133e-17 8.181e-17
3276.933 -1.168e-17 8.176e-17
3277.987 2.431e-18 7.728e-17
3279.042 1.577e-16 8.021e-17
3280.098 1.016e-16 7.938e-17
3281.153 -5.482e-17 8.6e-17
3282.207 -5.577e-17 7.973e-17
3283.263 6.18e-19 8.019e-17
3284.318 -1.27e-16 8.155e-17
3285.373 6.59e-17 8.273e-17
3286.428 -1.119e-17 8.364e-17
3287.484 9.786e-17 8.296e-17
3288.54 4.858e-17 8.336e-17
3289.594 6.28e-17 8.521e-17
3290.65 2.92e-17 8.356e-17
3291.706 -1.67e-17 8.505e-17
3292.762 2.886e-19 8.875e-17
3293.817 -1.222e-16 9.089e-17
3294.873 -1.554e-16 9.213e-17
3295.929 5.587e-17 9.243e-17
3296.985 3.564e-17 9.247e-17
3298.041 5.669e-17 9.07e-17
3299.097 -2.752e-16 8.352e-17
3300.153 -1.329e-16 8.711e-17
3301.209 -7.974e-17 8.931e-17
3302.265 -3.816e-17 8.855e-17
3303.321 -9.578e-17 8.571e-17
3304.378 7.514e-17 8.604e-17
3305.434 -2.115e-16 8.607e-17
3306.49 1.774e-16 8.539e-17
3307.547 6.111e-17 8.606e-17
3308.604 -1.648e-16 7.996e-17
3309.66 -4.748e-17 7.995e-17
3310.716 6.996e-17 8.17e-17
3311.773 -3.708e-17 7.51e-17
3312.829 1.061e-16 7.839e-17
3313.886 -3.112e-17 7.162e-17
3314.943 6.375e-18 7.246e-17
3316.001 -1.586e-17 7.176e-17
3317.057 7.266e-17 7.629e-17
3318.114 -3.591e-18 7.112e-17
3319.171 -4.725e-17 6.762e-17
3320.229 1.465e-17 6.877e-17
3321.285 -3.686e-17 6.572e-17
3322.342 -3.038e-18 6.544e-17
3323.4 2.278e-16 6.759e-17
3324.458 3.797e-18 5.983e-17
3325.514 1.833e-16 6.757e-17
3326.572 5.493e-17 6.45e-17
3327.63 9.932e-17 5.901e-17
3328.686 -1.14e-17 5.883e-17
3329.744 -3.68e-17 5.81e-17
3330.802 6.465e-17 5.938e-17
3331.86 5.294e-17 5.627e-17
3332.917 3.781e-17 5.519e-17
3333.975 4.941e-17 5.684e-17
3335.033 7.224e-17 5.918e-17
3336.091 -8.429e-17 5.311e-17
3337.148 1.216e-16 5.723e-17
3338.207 4.129e-17 5.446e-17
3339.265 -1.188e-16 5.62e-17
3340.322 -1.311e-17 5.597e-17
3341.381 3.562e-17 5.862e-17
3342.439 5.913e-17 5.97e-17
3343.498 4.088e-17 5.962e-17
3344.555 1.403e-16 6.235e-17
3345.614 -6.289e-17 6.246e-17
3346.673 -4.859e-17 5.897e-17
3347.731 3.403e-17 5.886e-17
3348.789 5.948e-17 6.11e-17
3349.848 7.293e-17 6.423e-17
3350.907 -8.657e-17 6.167e-17
3351.966 -5.298e-18 6.285e-17
3353.024 1.48e-16 6.055e-17
3354.083 -1.833e-17 6.488e-17
3355.142 7.004e-17 6.374e-17
3356.2 6.495e-17 6.123e-17
3357.259 1.284e-17 5.775e-17
3358.319 -9.792e-17 5.96e-17
3359.378 1.565e-16 6.329e-17
3360.436 8.785e-17 6.295e-17
3361.496 1.395e-16 5.99e-17
3362.555 4.215e-17 5.75e-17
3363.615 -1.327e-16 5.696e-17
3364.673 6.67e-17 5.64e-17
3365.733 -3.87e-18 5.63e-17
3366.793 6.946e-18 5.914e-17
3367.851 -1.362e-16 6.14e-17
3368.911 1.242e-16 6.84e-17
3369.971 -5.16e-19 6.735e-17
3371.031 1.635e-17 6.633e-17
3372.09 -5.688e-17 6.385e-17
3373.15 -2.676e-17 6.3e-17
3374.21 -1.677e-17 6.096e-17
3375.27 6.152e-17 6.017e-17
3376.329 5.404e-17 6.19e-17
3377.389 -1.621e-16 5.457e-17
3378.449 1.359e-16 5.898e-17
3379.509 1.274e-16 5.625e-17
3380.569 6.003e-17 5.693e-17
3381.629 3.302e-17 5.464e-17
3382.69 -3.904e-17 5.119e-17
3383.749 2.908e-17 5.109e-17
3384.81 -3.226e-17 4.967e-17
3385.871 4.795e-17 5.006e-17
3386.931 9.335e-17 4.614e-17
3387.991 4.248e-17 4.616e-17
3389.052 -3.893e-17 4.377e-17
3390.112 2.644e-17 4.585e-17
3391.172 -5.421e-18 4.366e-17
3392.233 4.898e-17 4.452e-17
3393.294 -1.215e-16 4.134e-17
3394.355 2.352e-17 4.356e-17
3395.415 3.832e-18 4.139e-17
3396.476 -2.398e-17 4.168e-17
3397.537 5.365e-17 4.234e-17
3398.599 8.862e-17 4.273e-17
3399.659 -1.365e-17 4.081e-17
3400.72 3.115e-17 4.25e-17
3401.782 -3.278e-17 3.992e-17
3402.843 5.207e-17 4.192e-17
3403.903 5.751e-17 4.239e-17
3404.965 -2.901e-17 4.33e-17
3406.027 7.903e-17 4.4e-17
3407.087 2.894e-17 4.424e-17
3408.149 4.638e-17 4.293e-17
3409.211 -2.374e-17 4.689e-17
3410.272 2.129e-17 4.464e-17
3411.333 3.34e-17 4.913e-17
3412.395 3.96e-17 4.423e-17
3413.457 -8.393e-17 4.564e-17
3414.519 -3.462e-17 4.548e-17
3415.58 -1.125e-16 4.71e-17
3416.642 6.368e-17 5.053e-17
3417.704 -3.885e-17 4.802e-17
3418.765 -2.584e-18 5.145e-17
3419.827 -9.174e-17 4.76e-17
3420.89 -6.74e-17 4.617e-17
3421.952 4.814e-17 4.921e-17
3423.013 4.503e-17 4.846e-17
3424.076 6.573e-17 5.081e-17
3425.138 -6.941e-17 4.673e-17
3426.201 1.358e-16 5.188e-17
3427.262 7.019e-17 4.923e-17
3428.325 1.357e-16 4.966e-17
3429.387 5.956e-17 4.949e-17
3430.449 1.713e-17 4.419e-17
3431.512 -2.973e-17 4.875e-17
3432.575 7.304e-18 4.55e-17
3433.638 -8.556e-18 4.395e-17
3434.699 2.774e-17 4.435e-17
3435.762 -8.376e-18 4.684e-17
3436.825 3.452e-17 4.4e-17
3437.888 4.214e-17 4.433e-17
3438.951 4.602e-17 4.463e-17
3440.014 7.058e-17 4.463e-17
3441.077 -5.295e-17 4.138e-17
3442.139 -2.376e-17 4.141e-17
3443.202 -1.137e-16 3.845e-17
3444.266 2.577e-17 3.911e-17
3445.329 5.555e-17 4.051e-17
3446.392 -2.492e-17 3.776e-17
3447.455 -6.225e-17 3.838e-17
3448.519 -4.365e-17 3.699e-17
3449.582 8.018e-17 4.178e-17
3450.645 1.646e-17 4.06e-17
3451.709 7.313e-17 4.087e-17
3452.772 6.436e-17 4.258e-17
3453.835 5.79e-17 4.004e-17
3454.899 7.453e-17 4.197e-17
3455.963 -9.414e-17 3.701e-17
3457.027 -3.325e-17 3.704e-17
3458.09 2.328e-17 3.73e-17
3459.154 2.949e-17 3.812e-17
3460.218 5.884e-17 3.963e-17
3461.282 4.797e-17 3.94e-17
3462.345 7.42e-17 3.907e-17
3463.409 4.61e-17 3.678e-17
3464.473 5.281e-17 3.631e-17
3465.537 3.637e-17 3.622e-17
3466.601 -2.659e-17 3.712e-17
3467.665 -4.153e-17 3.609e-17
3468.73 4.743e-17 3.596e-17
3469.793 2.559e-17 3.652e-17
3470.858 4.993e-17 3.599e-17
3471.923 5.36e-17 3.814e-17
3472.987 5.774e-17 3.76e-17
3474.051 2.825e-17 3.704e-17
3475.116 5.219e-17 3.758e-17
3476.18 6.973e-17 3.868e-17
3477.244 6.031e-17 3.989e-17
3478.309 9.963e-17 4.308e-17
3479.374 2.923e-17 4.373e-17
3480.439 1.147e-16 4.784e-17
3481.503 -2.934e-17 4.705e-17
3482.568 4.275e-17 4.7e-17
3483.633 -4.555e-17 4.524e-17
3484.698 1.631e-17 4.268e-17
3485.762 -3.479e-17 4.264e-17
3486.828 9.231e-17 4.277e-17
3487.893 5.107e-17 4.041e-17
3488.957 3.466e-17 4.067e-17
3490.023 -4.778e-17 3.857e-17
3491.088 1.024e-16 4.009e-17
3492.154 -2.487e-18 3.689e-17
3493.218 5.456e-17 3.826e-17
3494.284 -1.331e-17 3.373e-17
3495.349 -3.195e-18 3.508e-17
3496.415 7.109e-17 3.529e-17
3497.48 -1.714e-17 3.147e-17
3498.545 5.373e-17 3.331e-17
3499.611 -1.834e-17 3.222e-17
3500.676 -7.713e-17 2.954e-17
3501.742 5.059e-18 3.093e-17
3502.808 3.052e-17 3.089e-17
3503.874 -1.179e-17 2.835e-17
3504.939 2.66e-17 3.166e-17
3506.005 3.21e-17 2.908e-17
3507.071 2.367e-17 2.854e-17
3508.137 2.653e-17 2.734e-17
3509.203 3.267e-17 2.966e-17
3510.269 1.738e-17 2.979e-17
3511.335 6.857e-18 2.805e-17
3512.4 1.175e-17 2.751e-17
3513.467 -2.186e-17 2.689e-17
3514.533 4.43e-17 2.821e-17
3515.6 1.684e-17 2.709e-17
3516.665 4.189e-17 2.812e-17
3517.732 7.706e-17 2.861e-17
3518.799 1.956e-17 2.775e-17
3519.865 3.744e-17 2.666e-17
3520.931 4.626e-18 2.637e-17
3521.998 3.429e-17 2.646e-17
3523.065 7.721e-18 2.57e-17
3524.13 1.812e-17 2.659e-17
3525.197 5.853e-17 2.724e-17
3526.264 2.162e-17 2.556e-17
3527.331 4.243e-17 2.611e-17
3528.397 -9.485e-19 2.648e-17
3529.464 3.406e-17 2.68e-17
3530.531 2.441e-17 2.739e-17
3531.598 4.768e-17 2.885e-17
3532.665 5.1e-18 2.567e-17
3533.732 6.25e-17 2.856e-17
3534.799 1.031e-16 2.922e-17
3535.866 2.941e-17 2.931e-17
3536.933 -1.094e-17 2.713e-17
3538.001 -5.719e-17 2.844e-17
3539.068 7.594e-17 3.17e-17
3540.135 6.263e-19 3.296e-17
3541.202 -3.251e-18 3.392e-17
3542.27 1.051e-16 3.821e-17
3543.336 -3.909e-18 3.652e-17
3544.404 -2.293e-17 3.981e-17
3545.472 -2.074e-17 3.845e-17
3546.54 9.986e-17 3.817e-17
3547.607 -4.885e-17 3.678e-17
3548.674 6.058e-17 3.755e-17
3549.742 6.764e-17 3.598e-17
3550.81 -1.427e-17 3.501e-17
3551.877 9.996e-17 3.809e-17
3552.945 4.648e-17 3.5e-17
3554.014 6.334e-17 3.757e-17
3555.081 9.608e-17 3.889e-17
3556.149 1.079e-16 3.573e-17
3557.217 1.919e-17 3.338e-17
3558.285 1.867e-17 3.524e-17
3559.353 7.599e-18 3.411e-17
3560.421 -2.193e-17 3.176e-17
3561.49 2.349e-17 3.251e-17
3562.558 -1.323e-17 3.108e-17
3563.625 4.457e-17 3.179e-17
3564.694 6.787e-17 3.195e-17
3565.763 1.018e-16 3.153e-17
3566.83 9.182e-18 2.835e-17
3567.899 -4.166e-20 2.868e-17
3568.968 3.901e-17 3.049e-17
3570.036 9.96e-17 2.988e-17
3571.104 1.055e-17 2.787e-17
3572.173 1.265e-17 2.73e-17
3573.242 4.515e-17 2.707e-17
3574.31 2.31e-17 2.676e-17
3575.379 2.106e-17 2.703e-17
3576.448 2.602e-18 2.425e-17
3577.517 2.553e-17 2.532e-17
3578.585 1.917e-17 2.493e-17
3579.654 2.687e-17 2.437e-17
3580.723 4.979e-17 2.433e-17
3581.793 8.545e-18 2.363e-17
3582.861 6.509e-17 2.362e-17
3583.93 5.384e-17 2.221e-17
3585.0 -2.676e-17 2.125e-17
3586.068 -1.201e-17 2.083e-17
3587.137 -2.313e-17 2.01e-17
3588.207 -2.304e-17 2.056e-17
3589.276 4.304e-17 2.223e-17
3590.345 1.15e-17 2.135e-17
3591.415 -2.165e-17 2.009e-17
3592.484 3.885e-17 2.214e-17
3593.554 9.572e-18 2.21e-17
3594.623 6.133e-17 2.237e-17
3595.692 1.845e-17 2.135e-17
3596.762 -4.871e-18 2.215e-17
3597.831 5.763e-17 2.24e-17
3598.901 -1.252e-17 2.141e-17
3599.971 3.992e-17 2.137e-17
3601.041 5.609e-17 2.243e-17
3602.11 5.609e-17 2.335e-17
3603.18 6.149e-17 2.322e-17
3604.25 -1.638e-17 2.097e-17
3605.319 5.82e-17 2.371e-17
3606.39 2.066e-17 2.245e-17
3607.46 1.36e-17 2.267e-17
3608.53 2.432e-17 2.329e-17
3609.599 7.04e-17 2.37e-17
3610.67 8.348e-17 2.372e-17
3611.74 1.748e-17 2.352e-17
3612.811 3.376e-17 2.426e-17
3613.88 7.243e-17 2.661e-17
3614.951 3.031e-17 2.689e-17
3616.021 4.984e-17 2.675e-17
3617.091 -9.411e-18 2.685e-17
3618.162 3.242e-18 2.735e-17
3619.232 4.33e-17 2.741e-17
3620.303 -2.839e-18 2.727e-17
3621.373 8.123e-17 2.832e-17
3622.444 6.621e-17 2.871e-17
3623.515 1.251e-17 2.764e-17
3624.585 4.872e-17 2.638e-17
3625.655 5.584e-17 2.651e-17
3626.726 -3.323e-17 2.479e-17
3627.797 1.603e-17 2.701e-17
3628.867 -1.086e-18 2.617e-17
3629.939 -4.466e-19 2.783e-17
3631.01 6.245e-18 2.748e-17
3632.081 -2.335e-17 2.773e-17
3633.151 7.104e-17 2.971e-17
3634.222 1.808e-18 2.847e-17
3635.294 1.3e-17 2.82e-17
3636.364 6.142e-17 2.918e-17
3637.436 8.712e-17 2.947e-17
3638.507 5.429e-18 2.719e-17
3639.578 -1.115e-17 2.771e-17
3640.649 -2.693e-17 2.549e-17
3641.721 6.391e-17 2.793e-17
3642.792 -5.106e-17 2.611e-17
3643.864 -3.444e-20 2.615e-17
3644.934 4.972e-17 2.674e-17
3646.006 7.806e-18 2.59e-17
3647.078 3.674e-17 2.589e-17
3648.149 7.159e-19 2.896e-17
3649.221 2.867e-17 3.317e-17
3650.292 8.639e-17 3.692e-17
3651.364 2.401e-17 3.382e-17
3652.435 4.653e-17 3.282e-17
3653.507 2.409e-17 2.978e-17
3654.579 -2.134e-17 2.934e-17
3655.65 7.727e-17 3.027e-17
3656.723 7.181e-17 2.768e-17
3657.795 -1.036e-18 2.443e-17
3658.867 -5.386e-18 2.376e-17
3659.938 -2.413e-17 2.32e-17
3661.01 -1.655e-17 2.367e-17
3662.083 1.83e-17 2.666e-17
3663.155 -9.048e-18 2.638e-17
3664.227 -1.016e-17 2.674e-17
3665.299 -1.084e-17 2.401e-17
3666.371 9.935e-18 2.317e-17
3667.443 4.847e-17 2.165e-17
3668.515 6.378e-18 2.022e-17
3669.588 4.315e-17 2.02e-17
3670.661 2.387e-17 2.055e-17
3671.732 -1.321e-17 1.942e-17
3672.805 -3.899e-18 1.922e-17
3673.878 3.39e-17 2.077e-17
3674.951 2.847e-17 2.007e-17
3676.022 2.116e-17 1.92e-17
3677.095 -6.687e-18 1.8e-17
3678.168 -4.117e-18 1.895e-17
3679.24 1.837e-17 1.908e-17
3680.313 4.286e-18 1.84e-17
3681.386 6.255e-17 1.963e-17
3682.459 3.074e-17 1.924e-17
3683.531 4.525e-17 2.038e-17
3684.604 -2.688e-17 1.802e-17
3685.678 -9.925e-18 1.967e-17
3686.75 4.992e-17 1.976e-17
3687.823 4.595e-18 1.912e-17
3688.896 2.599e-18 1.877e-17
3689.97 6.214e-17 2.083e-17
3691.042 -8.681e-19 2.041e-17
3692.115 2.802e-18 1.976e-17
3693.189 -2.364e-18 1.931e-17
3694.262 -3.737e-19 2.026e-17
3695.335 8.936e-18 2.014e-17
3696.408 2.846e-17 2.144e-17
3697.482 2.896e-17 2.199e-17
3698.555 -1.067e-17 2.259e-17
3699.628 2.38e-17 2.343e-17
3700.702 1.238e-17 2.434e-17
3701.776 7.304e-18 2.354e-17
3702.849 3.025e-17 2.383e-17
3703.922 -2.193e-17 2.336e-17
3704.996 4.203e-18 2.39e-17
3706.069 4.616e-17 2.51e-17
3707.143 4.695e-17 2.422e-17
3708.217 3.758e-17 2.405e-17
3709.291 3.885e-17 2.252e-17
3710.364 4.573e-17 2.383e-17
3711.438 6.295e-17 2.373e-17
3712.512 1.914e-17 2.308e-17
3713.586 8.393e-18 2.178e-17
3714.66 -4.12e-18 2.214e-17
3715.734 -3.111e-18 2.178e-17
3716.808 1.533e-17 2.145e-17
3717.881 6.856e-18 2.25e-17
3718.956 4.42e-17 2.253e-17
3720.03 -1.09e-17 2.08e-17
3721.105 2.318e-17 2.052e-17
3722.178 -2.641e-17 1.895e-17
3723.253 8.411e-18 2.104e-17
3724.327 5.084e-17 2.148e-17
3725.401 2.714e-18 1.957e-17
3726.475 2.204e-17 2.06e-17
3727.55 6.184e-17 2.285e-17
3728.625 6.409e-17 2.247e-17
3729.698 -4.27e-18 2.081e-17
3730.773 1.241e-17 2.069e-17
3731.848 1.024e-17 2.182e-17
3732.922 -1.393e-17 2.2e-17
3733.997 3.39e-17 2.275e-17
3735.071 3.135e-17 2.297e-17
3736.146 -9.398e-18 2.172e-17
3737.22 2.229e-17 2.296e-17
3738.295 2.947e-17 2.343e-17
3739.37 -7.908e-18 2.348e-17
3740.445 3.743e-17 2.375e-17
3741.52 2.901e-17 2.293e-17
3742.595 5.678e-17 2.298e-17
3743.67 1.021e-16 2.371e-17
3744.744 5.855e-17 2.192e-17
3745.819 2.137e-17 2.032e-17
3746.895 3.528e-17 2.091e-17
3747.97 5.419e-17 2.058e-17
3749.044 5.694e-17 2.047e-17
3750.12 3.885e-17 1.97e-17
3751.195 -2.495e-17 1.879e-17
3752.27 4.872e-18 1.928e-17
3753.345 5.622e-18 1.862e-17
3754.421 6.661e-17 2.05e-17
3755.496 1.237e-17 1.867e-17
3756.571 3.944e-17 1.87e-17
3757.647 5.273e-17 1.905e-17
3758.722 -3.558e-17 1.692e-17
3759.798 6.055e-18 1.752e-17
3760.873 5.913e-17 1.832e-17
3761.948 1.579e-17 1.746e-17
3763.024 3.368e-17 1.722e-17
3764.099 4.393e-17 1.71e-17
3765.175 2.393e-17 1.72e-17
3766.251 6.019e-17 1.727e-17
3767.327 5.059e-17 1.699e-17
3768.402 2.892e-18 1.569e-17
3769.478 2.576e-17 1.689e-17
3770.554 -1.427e-17 1.639e-17
3771.629 -1.049e-17 1.642e-17
3772.705 9.141e-18 1.696e-17
3773.782 3.34e-17 1.851e-17
3774.858 3.799e-17 1.716e-17
3775.933 3.185e-17 1.727e-17
3777.009 1.484e-17 1.7e-17
3778.086 2.495e-17 1.705e-17
3779.161 5.19e-17 1.804e-17
3780.237 1.909e-17 1.642e-17
3781.314 6.467e-17 1.707e-17
3782.39 2.456e-17 1.677e-17
3783.466 4.746e-17 1.743e-17
3784.542 2.04e-17 1.684e-17
3785.619 2.8e-17 1.622e-17
3786.695 2.746e-17 1.635e-17
3787.771 3.33e-17 1.662e-17
3788.848 7.034e-17 1.805e-17
3789.924 2.173e-17 1.74e-17
3791.0 3.485e-17 1.759e-17
3792.077 3.603e-17 1.757e-17
3793.154 2.618e-17 1.718e-17
3794.23 2.568e-17 1.751e-17
3795.306 3.274e-17 1.777e-17
3796.383 3.639e-17 1.682e-17
3797.46 8.57e-18 1.65e-17
3798.536 7.887e-17 1.791e-17
3799.613 6.793e-17 1.75e-17
3800.69 3.471e-17 1.691e-17
3801.767 -2.006e-17 1.602e-17
3802.843 1.184e-17 1.69e-17
3803.92 3.915e-17 1.74e-17
3804.998 2.261e-17 1.695e-17
3806.075 8.598e-18 1.707e-17
3807.151 2.79e-17 1.645e-17
3808.228 2.538e-17 1.68e-17
3809.306 3.017e-17 1.671e-17
3810.382 5.476e-17 1.755e-17
3811.459 -2.192e-18 1.625e-17
3812.537 3.198e-17 1.75e-17
3813.614 4.755e-18 1.744e-17
3814.691 9.269e-18 1.755e-17
3815.768 3.223e-17 1.823e-17
3816.846 -8.199e-18 1.715e-17
3817.922 2.966e-17 1.76e-17
3819.0 5.926e-17 1.885e-17
3820.077 -3.404e-18 1.758e-17
3821.155 5.955e-17 1.817e-17
3822.232 3.794e-17 1.727e-17
3823.309 1.282e-17 1.671e-17
3824.387 5.454e-17 1.773e-17
3825.464 -1.799e-18 1.63e-17
3826.542 -4.448e-18 1.686e-17
3827.62 5.616e-18 1.71e-17
3828.698 3.709e-17 1.924e-17
3829.775 2.349e-17 1.928e-17
3830.853 1.83e-17 2.006e-17
3831.931 5.077e-17 2.099e-17
3833.009 -1.797e-17 1.877e-17
3834.086 1.201e-17 1.939e-17
3835.164 -1.338e-17 1.83e-17
3836.242 4.833e-17 1.836e-17
3837.319 1.55e-17 1.836e-17
3838.397 1.731e-17 1.841e-17
3839.475 2.223e-17 1.82e-17
3840.554 1.713e-18 1.738e-17
3841.631 2.227e-17 1.774e-17
3842.709 3.116e-17 1.793e-17
3843.788 3.514e-17 1.806e-17
3844.865 2.114e-17 1.803e-17
3845.943 4.198e-17 1.78e-17
3847.022 -4.249e-17 1.612e-17
3848.1 -1.006e-18 1.618e-17
3849.178 7.318e-17 1.835e-17
3850.256 2.168e-17 1.611e-17
3851.335 3.371e-17 1.682e-17
3852.412 4.567e-17 1.649e-17
3853.491 1.741e-17 1.677e-17
3854.57 3.839e-17 1.659e-17
3855.648 2.113e-17 1.544e-17
3856.726 1.784e-17 1.483e-17
3857.805 4.639e-17 1.58e-17
3858.884 5.206e-17 1.611e-17
3859.961 3.056e-17 1.526e-17
3861.04 3.595e-17 1.532e-17
3862.119 -1.51e-17 1.494e-17
3863.198 7.124e-18 1.489e-17
3864.276 1.289e-17 1.527e-17
3865.355 3.741e-17 1.422e-17
3866.434 3.517e-17 1.474e-17
3867.513 3.509e-17 1.493e-17
3868.591 3.228e-17 1.462e-17
3869.67 2.205e-17 1.421e-17
3870.749 1.896e-17 1.375e-17
3871.828 4.511e-17 1.408e-17
3872.907 1.193e-18 1.316e-17
3873.986 1.801e-17 1.413e-17
3875.065 2.315e-17 1.421e-17
3876.143 4.198e-18 1.37e-17
3877.223 -1.632e-17 1.239e-17
3878.302 7.928e-18 1.308e-17
3879.38 2.524e-17 1.311e-17
3880.46 4.756e-17 1.359e-17
3881.539 2.214e-17 1.307e-17
3882.619 2.164e-17 1.255e-17
3883.697 9.436e-18 1.229e-17
3884.777 7.972e-18 1.253e-17
3885.856 3.043e-17 1.271e-17
3886.935 -1.236e-17 1.182e-17
3888.015 -2.824e-18 1.155e-17
3889.094 5.284e-18 1.19e-17
3890.174 1.787e-18 1.207e-17
3891.253 4.303e-18 1.239e-17
3892.332 2.407e-18 1.188e-17
3893.412 4.444e-17 1.371e-17
3894.492 1.273e-17 1.377e-17
3895.571 1.553e-17 1.323e-17
3896.65 2.773e-17 1.349e-17
3897.73 1.151e-17 1.334e-17
3898.809 1.446e-17 1.338e-17
3899.889 1.426e-18 1.349e-17
3900.969 1.254e-17 1.385e-17
3902.049 5.066e-18 1.38e-17
3903.128 5.784e-18 1.311e-17
3904.208 2.457e-17 1.436e-17
3905.288 1.246e-17 1.542e-17
3906.367 1.836e-17 1.628e-17
3907.448 -3.08e-17 1.585e-17
3908.528 1.336e-17 1.682e-17
3909.608 5.82e-18 1.65e-17
3910.687 3.044e-17 1.726e-17
3911.768 1.637e-17 1.673e-17
3912.848 9.457e-18 1.711e-17
3913.927 1.435e-17 1.631e-17
3915.007 -1.302e-17 1.52e-17
3916.088 9.876e-18 1.469e-17
3917.168 2.89e-17 1.499e-17
3918.248 2.821e-17 1.45e-17
3919.328 2.879e-17 1.452e-17
3920.409 5.299e-17 1.494e-17
3921.488 -1.719e-18 1.343e-17
3922.569 2.565e-17 1.342e-17
3923.649 8.839e-18 1.335e-17
3924.73 4.541e-17 1.414e-17
3925.81 3.169e-17 1.373e-17
3926.89 -1.086e-17 1.283e-17
3927.971 1.895e-18 1.242e-17
3929.051 1.616e-17 1.304e-17
3930.131 -6.051e-18 1.281e-17
3931.212 1.643e-20 1.283e-17
3932.293 8.933e-18 1.325e-17
3933.373 -6.802e-18 1.303e-17
3934.454 6.255e-18 1.379e-17
3935.535 1.85e-17 1.333e-17
3936.615 1.925e-17 1.298e-17
3937.695 5.166e-18 1.28e-17
3938.776 2.718e-17 1.391e-17
3939.857 7.581e-18 1.408e-17
3940.937 -6.702e-18 1.403e-17
3942.019 1.789e-17 1.534e-17
3943.1 3.15e-17 1.592e-17
3944.181 7.966e-18 1.556e-17
3945.261 1.21e-19 1.553e-17
3946.342 1.555e-17 1.488e-17
3947.423 -1.56e-17 1.365e-17
3948.503 3.558e-17 1.467e-17
3949.585 -1.696e-17 1.35e-17
3950.666 1.485e-17 1.495e-17
3951.747 2.798e-17 1.417e-17
3952.828 1.904e-17 1.404e-17
3953.909 1.07e-17 1.326e-17
3954.99 -2.759e-18 1.319e-17
3956.071 1.086e-17 1.393e-17
3957.152 2.383e-17 1.371e-17
3958.234 2.427e-17 1.362e-17
3959.315 4.01e-18 1.339e-17
3960.396 4.042e-17 1.458e-17
3961.477 1.652e-18 1.4e-17
3962.559 3.811e-17 1.448e-17
3963.639 1.588e-17 1.352e-17
3964.721 4.407e-17 1.318e-17
3965.803 1.719e-17 1.237e-17
3966.884 2.717e-17 1.247e-17
3967.965 3.187e-17 1.261e-17
3969.047 1.228e-17 1.21e-17
3970.129 1.66e-17 1.259e-17
3971.209 1.653e-17 1.239e-17
3972.291 4.293e-17 1.34e-17
3973.373 7.203e-18 1.281e-17
3974.455 1.245e-17 1.283e-17
3975.536 -1.694e-18 1.301e-17
3976.618 3.757e-17 1.41e-17
3977.7 2.931e-17 1.41e-17
3978.782 -4.586e-18 1.333e-17
3979.863 2.732e-17 1.399e-17
3980.945 3.028e-17 1.414e-17
3982.027 1.837e-17 1.427e-17
3983.108 -9.301e-18 1.299e-17
3984.19 2.46e-17 1.385e-17
3985.272 3.221e-17 1.387e-17
3986.354 3.772e-17 1.412e-17
3987.436 3.041e-17 1.352e-17
3988.518 3.22e-17 1.41e-17
3989.6 4.025e-17 1.453e-17
3990.681 1.968e-17 1.384e-17
3991.764 -6.674e-18 1.295e-17
3992.846 3.621e-17 1.383e-17
3993.928 3.253e-17 1.418e-17
3995.01 5.391e-17 1.465e-17
3996.092 -6.619e-19 1.428e-17
3997.174 3.942e-17 1.487e-17
3998.256 1.963e-17 1.451e-17
3999.338 1.348e-17 1.48e-17
4000.421 3.08e-17 1.456e-17
4001.503 3.734e-17 1.434e-17
4002.585 1.687e-17 1.393e-17
4003.667 9.092e-19 1.344e-17
4004.75 2.439e-17 1.373e-17
4005.832 2.975e-17 1.439e-17
4006.914 3.551e-17 1.444e-17
4007.997 3.601e-17 1.455e-17
4009.08 3.704e-17 1.576e-17
4010.161 -9.574e-18 1.463e-17
4011.244 3.589e-17 1.563e-17
4012.327 3.832e-17 1.543e-17
4013.409 1.778e-17 1.475e-17
4014.492 1.381e-17 1.508e-17
4015.574 -1.209e-17 1.442e-17
4016.657 9.345e-18 1.418e-17
4017.739 2.552e-17 1.454e-17
4018.822 4.954e-17 1.605e-17
4019.905 4.771e-17 1.665e-17
4020.987 7.285e-17 1.78e-17
4022.07 3.24e-17 1.701e-17
4023.153 4.324e-17 1.722e-17
4024.236 3.642e-17 1.666e-17
4025.318 4.038e-17 1.601e-17
4026.401 4.06e-17 1.598e-17
4027.484 3.501e-17 1.529e-17
4028.567 3.808e-17 1.504e-17
4029.65 -1.203e-17 1.408e-17
4030.733 6.309e-17 1.566e-17
4031.816 2.237e-17 1.482e-17
4032.898 6.119e-17 1.538e-17
4033.982 2.144e-17 1.391e-17
4035.065 4.292e-17 1.45e-17
4036.148 6.656e-17 1.497e-17
4037.23 4e-17 1.467e-17
4038.314 3.786e-17 1.473e-17
4039.397 9.746e-17 1.58e-17
4040.48 2.625e-17 1.478e-17
4041.563 3.81e-17 1.555e-17
4042.646 2.308e-17 1.556e-17
4043.73 2.033e-17 1.7e-17
4044.812 4.976e-17 2.21e-17
4045.896 6.289e-17 2.859e-17
4046.98 6.05e-17 3.274e-17
4048.062 1.765e-17 3.106e-17
4049.146 -1.065e-17 2.579e-17
4050.229 -9.162e-19 2.036e-17
4051.313 3.387e-17 1.689e-17
4052.396 4.669e-17 1.576e-17
4053.479 4.844e-17 1.59e-17
4054.563 4.93e-17 1.624e-17
4055.646 4.071e-18 1.499e-17
4056.729 2.183e-17 1.499e-17
4057.813 3.13e-17 1.479e-17
4058.897 5.251e-17 1.555e-17
4059.98 4.296e-17 1.502e-17
4061.064 5.724e-17 1.542e-17
4062.148 4.137e-17 1.514e-17
4063.23 5.248e-17 1.536e-17
4064.314 2.719e-17 1.523e-17
4065.398 4.848e-17 1.617e-17
4066.482 4.663e-17 1.53e-17
4067.565 3.77e-17 1.531e-17
4068.649 5.076e-17 1.576e-17
4069.733 6.248e-18 1.451e-17
4070.816 3.968e-17 1.47e-17
4071.9 7.367e-17 1.546e-17
4072.985 3.677e-17 1.45e-17
4074.069 4.513e-17 1.48e-17
4075.152 5.487e-17 1.547e-17
4076.236 -1.011e-17 1.526e-17
4077.32 8.175e-17 1.845e-17
4078.403 4.383e-17 1.767e-17
4079.488 6.812e-17 1.796e-17
4080.572 5.064e-17 1.636e-17
4081.656 5.837e-17 1.614e-17
4082.739 3.945e-17 1.535e-17
4083.824 4.425e-17 1.542e-17
4084.908 3.263e-17 1.492e-17
4085.991 5.43e-17 1.517e-17
4087.076 4.515e-17 1.512e-17
4088.16 3.586e-17 1.487e-17
4089.245 5.197e-17 1.447e-17
4090.328 1.748e-17 1.352e-17
4091.413 4.629e-17 1.406e-17
4092.497 3.138e-17 1.34e-17
4093.581 2.871e-17 1.34e-17
4094.665 7.003e-17 1.447e-17
4095.75 2.678e-17 1.373e-17
4096.834 4.281e-17 1.36e-17
4097.918 3.907e-17 1.373e-17
4099.002 3.091e-17 1.371e-17
4100.087 4.599e-17 1.351e-17
4101.172 7.732e-17 1.43e-17
4102.255 7.976e-17 1.398e-17
4103.34 2.637e-17 1.306e-17
4104.425 3.153e-17 1.298e-17
4105.509 5.355e-17 1.343e-17
4106.593 5.401e-17 1.364e-17
4107.678 5.14e-17 1.338e-17
4108.763 6.206e-17 1.417e-17
4109.847 2.837e-17 1.345e-17
4110.932 2.571e-17 1.325e-17
4112.017 4.57e-17 1.366e-17
4113.1 5.217e-17 1.376e-17
4114.185 3.38e-17 1.339e-17
4115.27 7.406e-17 1.419e-17
4116.355 3.938e-17 1.384e-17
4117.439 4.28e-17 1.326e-17
4118.524 2.157e-17 1.309e-17
4119.609 4.067e-17 1.377e-17
4120.693 6.782e-17 1.377e-17
4121.778 1.117e-17 1.272e-17
4122.863 2.297e-17 1.342e-17
4123.949 4.162e-17 1.382e-17
4125.033 2.244e-17 1.362e-17
4126.118 5.865e-17 1.38e-17
4127.203 4.084e-17 1.396e-17
4128.287 4.928e-17 1.402e-17
4129.372 5.252e-17 1.421e-17
4130.458 4.33e-17 1.393e-17
4131.543 7.412e-17 1.475e-17
4132.627 8.392e-17 1.501e-17
4133.712 2.814e-17 1.423e-17
4134.798 4.827e-17 1.479e-17
4135.882 3.52e-18 1.385e-17
4136.967 3.439e-17 1.436e-17
4138.053 6.032e-17 1.429e-17
4139.138 4.22e-17 1.447e-17
4140.222 6.659e-17 1.481e-17
4141.308 4.478e-17 1.409e-17
4142.393 7.502e-17 1.47e-17
4143.478 4.371e-17 1.396e-17
4144.563 7.829e-17 1.45e-17
4145.649 3.084e-17 1.339e-17
4146.734 9.984e-17 1.486e-17
4147.819 5.631e-17 1.417e-17
4148.904 6.808e-17 1.425e-17
4149.99 4.587e-17 1.371e-17
4151.074 5.356e-17 1.436e-17
4152.16 6.356e-17 1.474e-17
4153.246 4.628e-17 1.463e-17
4154.331 5.497e-17 1.466e-17
4155.416 4.842e-17 1.51e-17
4156.502 4.835e-17 1.457e-17
4157.587 5.116e-17 1.502e-17
4158.672 7.652e-17 1.464e-17
4159.758 2.951e-17 1.471e-17
4160.844 8.141e-17 1.501e-17
4161.929 6.672e-17 1.539e-17
4163.014 7.606e-17 1.574e-17
4164.1 4.11e-17 1.564e-17
4165.186 3.339e-17 1.603e-17
4166.271 6.193e-17 1.699e-17
4167.357 2.635e-17 1.552e-17
4168.443 3.953e-17 1.58e-17
4169.528 2.956e-17 1.54e-17
4170.613 4.215e-17 1.528e-17
4171.699 5.884e-17 1.577e-17
4172.785 5.129e-17 1.496e-17
4173.87 7.416e-17 1.546e-17
4174.956 3.804e-17 1.488e-17
4176.042 7.55e-17 1.526e-17
4177.128 5.23e-17 1.483e-17
4178.213 8.929e-17 1.551e-17
4179.299 4.458e-17 1.494e-17
4180.386 4.288e-17 1.528e-17
4181.471 3.74e-17 1.474e-17
4182.557 4.204e-17 1.459e-17
4183.643 7.04e-17 1.479e-17
4184.729 3.318e-17 1.436e-17
4185.814 3.103e-17 1.405e-17
4186.901 5.934e-17 1.487e-17
4187.987 3.015e-17 1.446e-17
4189.072 9.061e-17 1.568e-17
4190.158 2.658e-17 1.464e-17
4191.244 5.953e-17 1.517e-17
4192.331 4.205e-17 1.46e-17
4193.416 5.095e-17 1.493e-17
4194.502 5.285e-17 1.495e-17
4195.589 8.912e-17 1.567e-17
4196.674 4.837e-17 1.463e-17
4197.76 6.96e-17 1.468e-17
4198.847 3.92e-17 1.434e-17
4199.933 5.928e-17 1.434e-17
4201.019 5.868e-17 1.509e-17
4202.105 5.41e-17 1.465e-17
4203.192 4.868e-17 1.463e-17
4204.277 4.838e-17 1.48e-17
4205.364 6.178e-17 1.511e-17
4206.45 6.391e-17 1.513e-17
4207.537 4.74e-17 1.489e-17
4208.622 5.442e-17 1.546e-17
4209.709 7.621e-17 1.597e-17
4210.795 7.518e-17 1.552e-17
4211.881 4.142e-17 1.531e-17
4212.968 9.117e-18 1.428e-17
4214.054 5.159e-17 1.514e-17
4215.141 8.268e-17 1.564e-17
4216.226 9.212e-17 1.585e-17
4217.313 4.312e-17 1.476e-17
4218.4 3.635e-17 1.456e-17
4219.486 5.237e-17 1.471e-17
4220.572 4.718e-17 1.442e-17
4221.659 3.631e-17 1.432e-17
4222.746 5.778e-17 1.508e-17
4223.832 2.611e-17 1.431e-17
4224.918 6.983e-17 1.522e-17
4226.005 6.863e-17 1.529e-17
4227.091 5.254e-17 1.443e-17
4228.178 5.346e-17 1.516e-17
4229.265 7.529e-17 1.474e-17
4230.352 6.062e-17 1.485e-17
4231.437 3.013e-17 1.461e-17
4232.524 4.747e-17 1.461e-17
4233.611 3.408e-17 1.454e-17
4234.697 4.951e-17 1.5e-17
4235.784 5.762e-17 1.507e-17
4236.871 2.263e-17 1.418e-17
4237.958 6.008e-17 1.504e-17
4239.044 4.492e-17 1.499e-17
4240.131 6.656e-17 1.507e-17
4241.218 5.732e-17 1.491e-17
4242.304 6.449e-17 1.462e-17
4243.391 6.926e-17 1.428e-17
4244.478 4.828e-17 1.477e-17
4245.565 8.996e-17 1.658e-17
4246.652 5.645e-17 1.662e-17
4247.739 2.849e-17 1.656e-17
4248.826 2.909e-18 1.565e-17
4249.912 7.3e-17 1.575e-17
4250.999 4.488e-17 1.499e-17
4252.086 4.892e-17 1.457e-17
4253.173 4.151e-17 1.41e-17
4254.26 4.801e-17 1.484e-17
4255.347 7.24e-17 1.503e-17
4256.434 3.847e-17 1.454e-17
4257.52 5.058e-17 1.481e-17
4258.608 6.18e-17 1.489e-17
4259.695 3.505e-17 1.441e-17
4260.782 7.695e-17 1.505e-17
4261.869 6.253e-17 1.437e-17
4262.956 5.529e-17 1.44e-17
4264.043 4.702e-17 1.43e-17
4265.13 4.378e-17 1.428e-17
4266.217 5.928e-17 1.451e-17
4267.304 5.873e-17 1.487e-17
4268.392 6.933e-17 1.496e-17
4269.478 7.663e-17 1.499e-17
4270.566 6.926e-17 1.466e-17
4271.653 9.08e-17 1.517e-17
4272.74 2.494e-17 1.372e-17
4273.827 3.579e-17 1.387e-17
4274.914 7.42e-17 1.419e-17
4276.002 7.178e-17 1.497e-17
4277.089 6.347e-17 1.488e-17
4278.176 4.498e-17 1.409e-17
4279.264 5.734e-17 1.507e-17
4280.35 5.041e-17 1.45e-17
4281.438 5.585e-17 1.49e-17
4282.525 5.881e-17 1.508e-17
4283.613 6.567e-17 1.501e-17
4284.7 4.926e-17 1.479e-17
4285.787 6.155e-17 1.468e-17
4286.875 5.322e-17 1.482e-17
4287.961 4.217e-17 1.468e-17
4289.049 6.745e-17 1.461e-17
4290.137 7.112e-17 1.493e-17
4291.224 8.333e-17 1.515e-17
4292.311 6.103e-17 1.487e-17
4293.399 8.202e-17 1.533e-17
4294.487 2.35e-17 1.476e-17
4295.573 4.589e-17 1.496e-17
4296.661 9.761e-17 1.571e-17
4297.749 6.658e-17 1.494e-17
4298.837 5.964e-17 1.493e-17
4299.923 4.856e-17 1.436e-17
4301.011 6.333e-17 1.531e-17
4302.099 2.97e-17 1.42e-17
4303.186 6.902e-17 1.492e-17
4304.274 7.22e-17 1.534e-17
4305.362 7.039e-17 1.528e-17
4306.45 7.998e-17 1.545e-17
4307.536 6.763e-17 1.535e-17
4308.624 5.085e-17 1.513e-17
4309.712 5.83e-17 1.526e-17
4310.799 7.264e-17 1.53e-17
4311.887 1.011e-16 1.626e-17
4312.975 6.748e-17 1.61e-17
4314.063 2.262e-17 1.634e-17
4315.15 5.121e-17 1.661e-17
4316.238 5.099e-17 1.654e-17
4317.326 6.964e-17 1.64e-17
4318.413 8.422e-17 1.632e-17
4319.501 4.684e-17 1.588e-17
4320.589 4.876e-17 1.649e-17
4321.677 7.639e-17 1.675e-17
4322.764 2.827e-17 1.615e-17
4323.852 4.323e-17 1.59e-17
4324.94 6.291e-17 1.624e-17
4326.027 7.75e-17 1.627e-17
4327.116 5.474e-17 1.558e-17
4328.204 5.702e-17 1.584e-17
4329.292 7.503e-17 1.564e-17
4330.379 4.806e-17 1.547e-17
4331.467 5.126e-17 1.565e-17
4332.555 3.893e-17 1.556e-17
4333.642 7.003e-17 1.571e-17
4334.731 6.084e-17 1.59e-17
4335.819 5.218e-17 1.557e-17
4336.907 9.373e-17 1.676e-17
4337.994 5.784e-17 1.6e-17
4339.083 7.396e-17 1.646e-17
4340.171 9.96e-17 1.701e-17
4341.258 7.084e-17 1.654e-17
4342.346 7.621e-17 1.678e-17
4343.435 8.94e-17 1.699e-17
4344.523 3.606e-17 1.628e-17
4345.61 7.65e-17 1.735e-17
4346.699 6.802e-17 1.747e-17
4347.787 5.238e-17 1.747e-17
4348.874 9.09e-17 1.801e-17
4349.963 1.098e-16 1.795e-17
4351.051 8.654e-17 1.75e-17
4352.139 7.922e-17 1.74e-17
4353.227 5.149e-17 1.66e-17
4354.315 7.674e-17 1.773e-17
4355.403 3.224e-17 1.861e-17
4356.491 5.924e-17 2.645e-17
4357.579 4.304e-17 3.557e-17
4358.668 1.413e-16 4.165e-17
4359.756 1.263e-16 4.008e-17
4360.844 5.517e-17 3.266e-17
4361.932 6.89e-17 2.511e-17
4363.021 6.291e-17 2.043e-17
4364.108 4.915e-17 1.827e-17
4365.197 4.95e-17 1.835e-17
4366.285 7.168e-17 1.827e-17
4367.374 6.496e-17 1.797e-17
4368.461 2.338e-17 1.771e-17
4369.55 6.532e-17 1.795e-17
4370.638 9.432e-17 1.831e-17
4371.726 7.27e-17 1.798e-17
4372.814 7.269e-17 1.826e-17
4373.903 9.632e-17 1.854e-17
4374.992 1.072e-16 1.889e-17
4376.079 1.055e-16 1.902e-17
4377.168 8.209e-17 1.841e-17
4378.256 4.139e-17 1.746e-17
4379.344 3.504e-17 1.759e-17
4380.433 8.422e-17 1.808e-17
4381.521 7.41e-17 1.772e-17
4382.61 5.231e-17 1.761e-17
4383.698 2.973e-17 1.725e-17
4384.786 5.269e-17 1.706e-17
4385.875 4.416e-17 1.727e-17
4386.963 9.868e-17 1.79e-17
4388.051 5.647e-17 1.744e-17
4389.14 7.795e-17 1.762e-17
4390.229 1.039e-16 1.788e-17
4391.317 6.88e-17 1.778e-17
4392.405 5.593e-17 1.752e-17
4393.494 1.96e-17 1.738e-17
4394.582 7.638e-17 1.8e-17
4395.671 8.566e-17 1.814e-17
4396.759 2.882e-17 1.71e-17
4397.848 4.82e-17 1.753e-17
4398.936 3.401e-17 1.75e-17
4400.025 6.898e-17 1.813e-17
4401.114 8.632e-17 1.903e-17
4402.201 2.486e-17 1.819e-17
4403.29 3.53e-17 1.816e-17
4404.379 6.853e-17 1.872e-17
4405.468 8.124e-17 1.871e-17
4406.556 2.837e-17 1.799e-17
4407.645 4.503e-17 1.866e-17
4408.734 1.073e-16 1.936e-17
4409.822 5.79e-17 1.843e-17
4410.91 7.609e-17 1.872e-17
4411.999 9.383e-17 1.907e-17
4413.088 1.034e-16 1.926e-17
4414.176 7.827e-17 1.948e-17
4415.265 4.709e-17 1.919e-17
4416.354 7.886e-17 1.938e-17
4417.442 5.361e-17 1.911e-17
4418.531 7.754e-17 1.922e-17
4419.62 7.689e-17 1.918e-17
4420.709 6.813e-17 1.934e-17
4421.797 7.64e-17 1.933e-17
4422.886 3.963e-17 1.889e-17
4423.975 6.801e-17 1.893e-17
4425.063 6.564e-17 1.888e-17
4426.152 9.095e-17 1.951e-17
4427.241 3.977e-17 1.863e-17
4428.33 3.458e-17 1.877e-17
4429.418 1.02e-16 1.937e-17
4430.507 6.923e-17 1.912e-17
4431.596 5.966e-17 1.922e-17
4432.684 7.681e-17 1.923e-17
4433.773 3.566e-17 1.882e-17
4434.862 2.637e-17 1.869e-17
4435.951 3.346e-17 1.841e-17
4437.039 2.466e-17 1.879e-17
4438.128 6.131e-19 1.817e-17
4439.218 6.83e-17 1.94e-17
4440.306 4.13e-17 1.891e-17
4441.395 4.071e-17 1.899e-17
4442.484 5.442e-17 1.875e-17
4443.573 6.077e-17 1.909e-17
4444.661 9.395e-17 1.942e-17
4445.75 1.025e-16 1.959e-17
4446.839 4.045e-17 1.913e-17
4447.928 9.758e-17 1.98e-17
4449.017 1.347e-17 1.852e-17
4450.106 2.308e-17 1.848e-17
4451.194 7.239e-17 1.939e-17
4452.283 5.318e-17 1.896e-17
4453.373 4.19e-17 1.867e-17
4454.462 5.174e-17 1.917e-17
4455.55 5.51e-17 1.884e-17
4456.639 5.606e-17 1.908e-17
4457.728 7.752e-17 1.912e-17
4458.817 5.871e-17 1.908e-17
4459.906 7.884e-17 1.924e-17
4460.995 1.727e-17 1.86e-17
4462.084 9.558e-17 1.946e-17
4463.173 8.227e-17 1.964e-17
4464.262 4.635e-17 1.894e-17
4465.351 5.137e-17 1.926e-17
4466.439 9.669e-17 1.973e-17
4467.529 6.324e-17 1.953e-17
4468.618 4.804e-17 1.886e-17
4469.707 2.448e-17 1.826e-17
4470.795 2.929e-17 1.877e-17
4471.885 1.769e-17 1.868e-17
4472.974 4.577e-17 1.882e-17
4474.062 5.648e-17 1.928e-17
4475.152 1.015e-16 1.958e-17
4476.241 6.21e-17 1.965e-17
4477.33 6.121e-17 1.955e-17
4478.419 6.328e-17 1.929e-17
4479.508 3.966e-17 1.871e-17
4480.597 3.557e-17 1.894e-17
4481.686 2.549e-17 1.869e-17
4482.775 5.014e-17 1.912e-17
4483.864 8.69e-17 1.971e-17
4484.954 2.031e-17 1.89e-17
4486.042 3.847e-17 1.898e-17
4487.132 2.918e-17 1.911e-17
4488.221 6.112e-17 1.908e-17
4489.309 5.564e-17 1.934e-17
4490.399 7.475e-17 1.931e-17
4491.488 6.912e-17 1.962e-17
4492.578 5.523e-17 1.927e-17
4493.666 7.562e-17 1.955e-17
4494.755 -3.441e-18 1.886e-17
4495.845 4.803e-17 1.909e-17
4496.933 6.521e-17 1.949e-17
4498.023 9.336e-17 1.971e-17
4499.112 7.244e-17 1.968e-17
4500.202 7.679e-17 1.944e-17
4501.29 5.143e-17 1.944e-17
4502.379 4.275e-17 1.905e-17
4503.469 5.083e-17 1.896e-17
4504.557 5.632e-17 1.919e-17
4505.647 7.355e-17 1.93e-17
4506.736 6.065e-17 1.917e-17
4507.826 6.182e-17 1.92e-17
4508.914 8.611e-17 1.959e-17
4510.004 4.521e-17 1.892e-17
4511.093 1.553e-17 1.813e-17
4512.182 7.195e-17 1.894e-17
4513.271 4.947e-17 1.844e-17
4514.361 3.599e-17 1.883e-17
4515.45 3.001e-17 1.852e-17
4516.539 5.388e-17 1.876e-17
4517.628 5.408e-17 1.892e-17
4518.718 2.357e-17 1.83e-17
4519.806 5.1e-17 1.883e-17
4520.896 5.969e-17 1.899e-17
4521.985 2.173e-17 1.829e-17
4523.075 2.656e-17 1.832e-17
4524.163 4.313e-17 1.824e-17
4525.253 4.478e-17 1.846e-17
4526.342 5.615e-17 1.871e-17
4527.431 7.099e-17 1.896e-17
4528.521 3.784e-17 1.869e-17
4529.61 2.769e-17 1.814e-17
4530.7 5.498e-17 1.87e-17
4531.788 3.262e-17 1.844e-17
4532.878 4.347e-17 1.859e-17
4533.967 4.293e-17 1.874e-17
4535.056 6.053e-17 1.873e-17
4536.145 7.215e-17 1.902e-17
4537.235 6.227e-17 1.817e-17
4538.325 7.811e-17 1.855e-17
4539.413 7.766e-17 1.86e-17
4540.503 4.217e-17 1.818e-17
4541.592 4.884e-17 1.85e-17
4542.681 5.128e-17 1.831e-17
4543.771 6.445e-17 1.849e-17
4544.86 4.168e-17 1.867e-17
4545.949 1.542e-17 1.778e-17
4547.038 4.161e-17 1.817e-17
4548.128 8.021e-17 1.839e-17
4549.218 6.74e-17 1.796e-17
4550.306 3.848e-17 1.747e-17
4551.396 4.305e-17 1.778e-17
4552.485 9.469e-17 1.834e-17
4553.574 4.891e-17 1.78e-17
4554.664 4.141e-17 1.768e-17
4555.753 4.847e-17 1.762e-17
4556.843 7.89e-17 1.781e-17
4557.932 3.15e-17 1.759e-17
4559.021 5.012e-17 1.803e-17
4560.111 1.01e-16 1.829e-17
4561.2 6.751e-17 1.766e-17
4562.289 4.327e-17 1.755e-17
4563.379 1.717e-17 1.715e-17
4564.468 3.732e-17 1.709e-17
4565.557 4.351e-17 1.71e-17
4566.647 9.632e-17 1.769e-17
4567.736 3.506e-17 1.701e-17
4568.825 3.192e-17 1.713e-17
4569.915 7.025e-17 1.737e-17
4571.004 6.942e-17 1.733e-17
4572.094 4.541e-17 1.701e-17
4573.183 1.33e-17 1.652e-17
4574.272 5.829e-17 1.696e-17
4575.362 4.603e-17 1.725e-17
4576.451 3.954e-17 1.677e-17
4577.54 7.425e-17 1.698e-17
4578.63 7.167e-17 1.739e-17
4579.72 5.111e-17 1.713e-17
4580.808 3.054e-17 1.681e-17
4581.898 7.44e-17 1.707e-17
4582.988 6.336e-17 1.653e-17
4584.076 8.016e-17 1.71e-17
4585.166 8.411e-17 1.713e-17
4586.256 3.799e-17 1.7e-17
4587.345 6.657e-17 1.697e-17
4588.434 3.785e-17 1.667e-17
4589.524 7.578e-17 1.681e-17
4590.613 9.242e-17 1.724e-17
4591.702 1.007e-16 1.705e-17
4592.792 8.685e-17 1.706e-17
4593.882 4.627e-17 1.658e-17
4594.971 4.399e-17 1.62e-17
4596.06 6.205e-17 1.695e-17
4597.15 6.776e-17 1.664e-17
4598.239 5.549e-17 1.658e-17
4599.328 5.939e-17 1.636e-17
4600.418 4.768e-17 1.615e-17
4601.507 6.822e-17 1.616e-17
4602.597 2.414e-17 1.579e-17
4603.686 1.931e-17 1.568e-17
4604.775 3.723e-17 1.627e-17
4605.865 6.522e-17 1.663e-17
4606.954 4.435e-17 1.612e-17
4608.044 8.596e-17 1.69e-17
4609.133 2.534e-17 1.634e-17
4610.222 5.421e-17 1.659e-17
4611.312 6.51e-17 1.667e-17
4612.401 6.844e-17 1.644e-17
4613.491 4.471e-17 1.611e-17
4614.58 2.145e-17 1.561e-17
4615.669 3.853e-17 1.565e-17
4616.759 4.163e-17 1.588e-17
4617.848 7.074e-17 1.637e-17
4618.938 1.39e-17 1.587e-17
4620.027 6.889e-17 1.641e-17
4621.117 3.946e-17 1.574e-17
4622.206 6.321e-17 1.62e-17
4623.295 6.331e-17 1.631e-17
4624.385 4.699e-17 1.582e-17
4625.474 6.226e-17 1.614e-17
4626.563 5.606e-17 1.62e-17
4627.653 6.661e-17 1.61e-17
4628.743 6.476e-17 1.618e-17
4629.832 7.938e-17 1.635e-17
4630.921 5.893e-17 1.601e-17
4632.011 8.733e-17 1.59e-17
4633.1 4.278e-17 1.576e-17
4634.189 3.923e-17 1.551e-17
4635.279 4.676e-17 1.572e-17
4636.369 5.145e-17 1.574e-17
4637.457 5.73e-17 1.573e-17
4638.547 7.331e-17 1.579e-17
4639.637 6.282e-17 1.571e-17
4640.725 7.191e-17 1.601e-17
4641.815 7.472e-17 1.589e-17
4642.905 6.673e-17 1.563e-17
4643.994 5.741e-17 1.583e-17
4645.083 5.274e-17 1.573e-17
4646.173 6.604e-17 1.577e-17
4647.263 4.406e-17 1.537e-17
4648.351 6.729e-17 1.543e-17
4649.441 7.126e-17 1.58e-17
4650.531 8.248e-17 1.591e-17
4651.62 5.38e-17 1.545e-17
4652.709 3.984e-17 1.54e-17
4653.799 2.597e-17 1.489e-17
4654.888 4.65e-17 1.535e-17
4655.977 4.263e-17 1.543e-17
4657.067 5.182e-17 1.561e-17
4658.156 8.059e-17 1.616e-17
4659.246 5.565e-17 1.546e-17
4660.335 5.711e-17 1.605e-17
4661.424 5.057e-17 1.574e-17
4662.514 5.946e-17 1.608e-17
4663.603 5.746e-17 1.6e-17
4664.692 7.364e-17 1.611e-17
4665.782 6.89e-17 1.601e-17
4666.872 6.943e-17 1.623e-17
4667.96 7.723e-17 1.642e-17
4669.05 5.487e-17 1.614e-17
4670.139 6.839e-17 1.641e-17
4671.228 5.402e-17 1.618e-17
4672.318 6.59e-17 1.617e-17
4673.407 9.474e-17 1.657e-17
4674.496 5.009e-17 1.58e-17
4675.586 6.116e-17 1.606e-17
4676.675 6.12e-17 1.615e-17
4677.765 6.932e-17 1.607e-17
4678.854 7.648e-17 1.599e-17
4679.943 5.109e-17 1.538e-17
4681.033 5.725e-17 1.515e-17
4682.121 6.517e-17 1.558e-17
4683.211 6.733e-17 1.546e-17
4684.301 6.408e-17 1.53e-17
4685.39 4.648e-17 1.527e-17
4686.479 6.667e-17 1.574e-17
4687.568 5.823e-17 1.533e-17
4688.658 9.135e-17 1.554e-17
4689.747 7.13e-17 1.546e-17
4690.836 9.247e-17 1.569e-17
4691.926 7.02e-17 1.511e-17
4693.015 8.753e-17 1.55e-17
4694.104 8.009e-17 1.505e-17
4695.194 6.999e-17 1.523e-17
4696.283 7.064e-17 1.499e-17
4697.372 6.852e-17 1.498e-17
4698.461 8.944e-17 1.543e-17
4699.551 6.655e-17 1.458e-17
4700.64 7.302e-17 1.495e-17
4701.729 5.968e-17 1.459e-17
4702.819 4.987e-17 1.47e-17
4703.908 7.337e-17 1.518e-17
4704.997 5.365e-17 1.523e-17
4706.086 6.027e-17 1.559e-17
4707.176 5.546e-17 1.527e-17
4708.265 8.723e-17 1.57e-17
4709.354 7.424e-17 1.564e-17
4710.443 6.749e-17 1.546e-17
4711.533 7.553e-17 1.548e-17
4712.621 6.167e-17 1.515e-17
4713.711 6.454e-17 1.534e-17
4714.801 4.994e-17 1.476e-17
4715.89 5.483e-17 1.519e-17
4716.979 6.975e-17 1.491e-17
4718.068 8.708e-17 1.57e-17
4719.158 7.431e-17 1.539e-17
4720.246 8.268e-17 1.548e-17
4721.336 5.326e-17 1.498e-17
4722.425 5.9e-17 1.527e-17
4723.515 6.652e-17 1.558e-17
4724.603 5.923e-17 1.454e-17
4725.692 3.798e-17 1.457e-17
4726.782 6.439e-17 1.565e-17
4727.87 7.152e-17 1.598e-17
4728.96 6.292e-17 1.622e-17
4730.049 4.729e-17 1.561e-17
4731.138 2.063e-17 1.564e-17
4732.227 3.526e-17 1.522e-17
4733.317 7.164e-17 1.584e-17
4734.406 4.45e-17 1.598e-17
4735.495 1.926e-17 1.539e-17
4736.584 4.428e-17 1.548e-17
4737.673 7.525e-17 1.649e-17
4738.762 5.958e-17 1.645e-17
4739.851 5.33e-17 1.617e-17
4740.941 7.598e-17 1.695e-17
4742.03 5.621e-17 1.673e-17
4743.118 6.108e-17 1.705e-17
4744.208 7.781e-17 1.699e-17
4745.297 6.915e-17 1.658e-17
4746.386 4.682e-17 1.584e-17
4747.475 6.739e-17 1.569e-17
4748.564 5.897e-17 1.519e-17
4749.654 4.975e-17 1.489e-17
4750.742 8.823e-17 1.513e-17
4751.831 2.339e-17 1.445e-17
4752.921 6.1e-17 1.55e-17
4754.009 8.344e-17 1.593e-17
4755.098 7.719e-17 1.527e-17
4756.188 5.313e-17 1.477e-17
4757.277 6.296e-17 1.473e-17
4758.365 5.038e-17 1.444e-17
4759.455 7.869e-17 1.481e-17
4760.544 7.08e-17 1.453e-17
4761.632 6.14e-17 1.445e-17
4762.722 5.93e-17 1.415e-17
4763.811 6.205e-17 1.458e-17
4764.9 6.98e-17 1.421e-17
4765.989 5.291e-17 1.414e-17
4767.078 3.852e-17 1.378e-17
4768.167 5.241e-17 1.445e-17
4769.255 7.196e-17 1.458e-17
4770.345 6.914e-17 1.42e-17
4771.434 6.71e-17 1.417e-17
4772.523 7.754e-17 1.452e-17
4773.611 5.957e-17 1.441e-17
4774.701 7.505e-17 1.492e-17
4775.79 4.642e-17 1.403e-17
4776.878 4.711e-17 1.397e-17
4777.967 4.277e-17 1.449e-17
4779.056 9.594e-17 1.564e-17
4780.146 5.114e-17 1.45e-17
4781.234 3.424e-17 1.419e-17
4782.323 5.245e-17 1.45e-17
4783.412 6.074e-17 1.389e-17
4784.5 6.148e-17 1.443e-17
4785.589 5.161e-17 1.385e-17
4786.679 4.285e-17 1.368e-17
4787.767 5.616e-17 1.392e-17
4788.856 4.941e-17 1.421e-17
4789.945 5.013e-17 1.417e-17
4791.034 5.333e-17 1.405e-17
4792.122 8.643e-17 1.515e-17
4793.211 4.948e-17 1.415e-17
4794.301 4.175e-17 1.405e-17
4795.389 6.494e-17 1.416e-17
4796.478 3.475e-17 1.406e-17
4797.567 7.856e-17 1.48e-17
4798.656 5.746e-17 1.417e-17
4799.744 7.498e-17 1.451e-17
4800.833 5.144e-17 1.399e-17
4801.922 3.928e-17 1.386e-17
4803.01 4.985e-17 1.376e-17
4804.099 4.421e-17 1.395e-17
4805.188 6.942e-17 1.424e-17
4806.277 4.127e-17 1.384e-17
4807.365 7.977e-17 1.48e-17
4808.454 4.365e-17 1.385e-17
4809.543 6.753e-17 1.466e-17
4810.631 5.548e-17 1.46e-17
4811.72 3.191e-17 1.397e-17
4812.809 5.648e-17 1.431e-17
4813.898 6.442e-17 1.478e-17
4814.986 5.003e-17 1.444e-17
4816.075 3.843e-17 1.428e-17
4817.164 7.396e-17 1.522e-17
4818.252 5.092e-17 1.49e-17
4819.341 6.09e-17 1.455e-17
4820.43 4.909e-17 1.473e-17
4821.519 5.331e-17 1.488e-17
4822.607 3.85e-17 1.46e-17
4823.695 5.626e-17 1.491e-17
4824.784 7.11e-17 1.524e-17
4825.872 5.361e-17 1.471e-17
4826.961 6.464e-17 1.492e-17
4828.05 6.427e-17 1.521e-17
4829.139 4.7e-17 1.474e-17
4830.227 3.485e-17 1.489e-17
4831.316 7.834e-17 1.539e-17
4832.404 4.885e-17 1.558e-17
4833.492 5.305e-17 1.545e-17
4834.581 3.705e-17 1.507e-17
4835.67 5.886e-17 1.52e-17
4836.758 3.042e-17 1.478e-17
4837.846 5.321e-17 1.546e-17
4838.935 6.587e-17 1.567e-17
4840.024 1.962e-17 1.519e-17
4841.112 4.222e-17 1.532e-17
4842.2 9.209e-18 1.475e-17
4843.289 5.601e-17 1.516e-17
4844.377 3.267e-17 1.518e-17
4845.466 4.42e-17 1.459e-17
4846.554 6.755e-17 1.523e-17
4847.643 5.36e-17 1.524e-17
4848.731 5.439e-17 1.547e-17
4849.819 6.042e-17 1.552e-17
4850.908 5.908e-17 1.523e-17
4851.996 5.508e-17 1.502e-17
4853.084 3.279e-17 1.504e-17
4854.173 6.201e-17 1.534e-17
4855.262 4.984e-17 1.531e-17
4856.349 8.352e-17 1.566e-17
4857.438 4.551e-17 1.489e-17
4858.526 6.94e-17 1.521e-17
4859.614 4.069e-17 1.53e-17
4860.702 5.436e-17 1.526e-17
4861.791 3.33e-17 1.49e-17
4862.88 4.462e-17 1.514e-17
4863.967 6.699e-17 1.552e-17
4865.056 6.584e-17 1.544e-17
4866.144 3.211e-17 1.479e-17
4867.232 6.474e-17 1.525e-17
4868.32 3.804e-17 1.468e-17
4869.409 6.347e-17 1.549e-17
4870.497 7.706e-17 1.545e-17
4871.585 5.188e-17 1.51e-17
4872.673 3.483e-17 1.476e-17
4873.762 6.533e-17 1.541e-17
4874.849 8.209e-17 1.554e-17
4875.938 5.669e-17 1.542e-17
4877.026 5.462e-17 1.497e-17
4878.114 6.674e-17 1.553e-17
4879.202 6.93e-17 1.598e-17
4880.29 6.142e-17 1.595e-17
4881.379 5.668e-17 1.556e-17
4882.466 2.043e-17 1.515e-17
4883.554 4.759e-17 1.535e-17
4884.643 2.343e-17 1.445e-17
4885.731 2.588e-17 1.509e-17
4886.818 5.935e-17 1.531e-17
4887.907 6.768e-17 1.534e-17
4888.995 7.3e-17 1.537e-17
4890.082 6.979e-17 1.576e-17
4891.17 5.145e-17 1.531e-17
4892.259 2.966e-17 1.498e-17
4893.346 -4.188e-18 1.451e-17
4894.434 4.793e-17 1.524e-17
4895.522 6.913e-17 1.54e-17
4896.611 6.651e-17 1.544e-17
4897.698 8.665e-17 1.584e-17
4898.786 5.708e-17 1.491e-17
4899.874 4.377e-17 1.492e-17
4900.961 3.639e-17 1.518e-17
4902.05 5.873e-17 1.494e-17
4903.138 6.13e-17 1.517e-17
4904.226 7.188e-17 1.559e-17
4905.313 3.242e-17 1.519e-17
4906.401 7.486e-17 1.55e-17
4907.489 4.732e-17 1.508e-17
4908.576 8.438e-17 1.557e-17
4909.664 4.675e-17 1.529e-17
4910.753 4.905e-17 1.489e-17
4911.841 3.816e-17 1.498e-17
4912.928 5.355e-17 1.505e-17
4914.016 5.392e-17 1.506e-17
4915.104 2.724e-17 1.479e-17
4916.191 5.729e-18 1.478e-17
4917.279 6.886e-17 1.532e-17
4918.367 6.237e-17 1.507e-17
4919.455 4.935e-17 1.498e-17
4920.542 5.752e-17 1.536e-17
4921.63 3.528e-17 1.453e-17
4922.718 5.875e-17 1.545e-17
4923.804 4.158e-17 1.496e-17
4924.892 4.123e-17 1.514e-17
4925.98 3.206e-17 1.46e-17
4927.068 5.741e-17 1.535e-17
4928.155 2.076e-17 1.431e-17
4929.243 4.794e-17 1.494e-17
4930.331 6.254e-17 1.496e-17
4931.418 6.693e-17 1.484e-17
4932.505 6.704e-17 1.493e-17
4933.593 3.876e-17 1.462e-17
4934.681 6.431e-17 1.509e-17
4935.768 5.842e-17 1.52e-17
4936.856 6.078e-17 1.528e-17
4937.943 4.161e-17 1.474e-17
4939.03 2.63e-17 1.486e-17
4940.118 6.676e-17 1.533e-17
4941.205 7.154e-17 1.538e-17
4942.292 7.169e-17 1.54e-17
4943.38 2.934e-17 1.454e-17
4944.468 4.852e-17 1.478e-17
4945.555 4.883e-17 1.491e-17
4946.642 6.347e-17 1.516e-17
4947.729 1.175e-17 1.382e-17
4948.817 8.909e-17 1.516e-17
4949.904 5.496e-17 1.458e-17
4950.991 5.486e-17 1.52e-17
4952.079 8.479e-17 1.571e-17
4953.166 3.877e-17 1.512e-17
4954.253 5.207e-17 1.514e-17
4955.341 6.245e-17 1.513e-17
4956.428 4.698e-17 1.494e-17
4957.515 3.78e-17 1.457e-17
4958.602 3.754e-17 1.466e-17
4959.69 5.193e-17 1.507e-17
4960.777 7.479e-17 1.531e-17
4961.863 6.609e-17 1.526e-17
4962.951 4.529e-17 1.487e-17
4964.038 3.3e-17 1.465e-17
4965.125 5.741e-17 1.524e-17
4966.212 5.543e-17 1.537e-17
4967.3 2.778e-17 1.488e-17
4968.387 9.13e-17 1.595e-17
4969.473 7.529e-17 1.568e-17
4970.561 5.394e-17 1.575e-17
4971.648 6.189e-17 1.578e-17
4972.734 3.108e-17 1.603e-17
4973.822 6.501e-17 1.6e-17
4974.909 5.174e-17 1.632e-17
4975.996 5.037e-17 1.639e-17
4977.082 6.179e-17 1.653e-17
4978.17 4.217e-17 1.644e-17
4979.257 3.951e-17 1.707e-17
4980.343 3.188e-17 1.731e-17
4981.43 5.438e-17 1.761e-17
4982.517 5.801e-17 1.762e-17
4983.605 8.132e-17 1.812e-17
4984.691 8.819e-17 1.822e-17
4985.778 3.053e-17 1.749e-17
4986.865 7.959e-17 1.778e-17
4987.951 4.114e-17 1.682e-17
4989.038 5.131e-17 1.688e-17
4990.125 6.305e-17 1.648e-17
4991.211 3.001e-17 1.636e-17
4992.298 5.176e-17 1.627e-17
4993.385 6.607e-17 1.65e-17
4994.472 6.665e-17 1.616e-17
4995.558 1.09e-17 1.522e-17
4996.645 4.898e-17 1.565e-17
4997.732 4.161e-17 1.523e-17
4998.818 5.1e-17 1.539e-17
4999.905 8.382e-17 1.55e-17
5000.992 2.833e-17 1.522e-17
5002.079 4.289e-17 1.488e-17
5003.165 4.375e-17 1.494e-17
5004.252 3.912e-17 1.474e-17
5005.339 6.186e-17 1.52e-17
5006.424 8.214e-17 1.527e-17
5007.511 2.719e-17 1.438e-17
5008.598 3.818e-17 1.493e-17
5009.685 3.974e-17 1.456e-17
5010.771 5.355e-17 1.531e-17
5011.857 2.135e-17 1.439e-17
5012.944 4.955e-17 1.515e-17
5014.03 5.139e-17 1.502e-17
5015.116 6.045e-17 1.518e-17
5016.203 2.168e-17 1.459e-17
5017.29 6.863e-17 1.529e-17
5018.375 5.824e-17 1.526e-17
5019.462 4.452e-17 1.519e-17
5020.549 5.561e-17 1.538e-17
5021.634 4.083e-17 1.497e-17
5022.721 5.136e-17 1.497e-17
5023.807 4.19e-17 1.492e-17
5024.894 6.74e-17 1.522e-17
5025.98 3.928e-17 1.449e-17
5027.066 6.19e-17 1.513e-17
5028.153 6.25e-17 1.498e-17
5029.238 5.885e-17 1.492e-17
5030.325 2.841e-17 1.483e-17
5031.411 5.417e-17 1.522e-17
5032.497 4.774e-17 1.511e-17
5033.583 4.624e-17 1.529e-17
5034.669 5.892e-17 1.504e-17
5035.756 6.267e-17 1.508e-17
5036.841 4.926e-17 1.483e-17
5037.927 2.366e-17 1.455e-17
5039.014 1.164e-17 1.405e-17
5040.099 6.096e-17 1.502e-17
5041.185 5.622e-17 1.494e-17
5042.272 7.196e-17 1.521e-17
5043.358 5.474e-17 1.51e-17
5044.443 4.364e-17 1.474e-17
5045.529 3.017e-17 1.488e-17
5046.616 5.268e-17 1.504e-17
5047.701 5.528e-17 1.477e-17
5048.787 4.178e-17 1.49e-17
5049.873 5.071e-17 1.508e-17
5050.959 3.483e-17 1.442e-17
5052.044 7.107e-17 1.548e-17
5053.131 2.985e-17 1.486e-17
5054.217 5.806e-17 1.518e-17
5055.302 3.798e-17 1.5e-17
5056.388 3.959e-17 1.508e-17
5057.474 4.943e-17 1.512e-17
5058.56 3.375e-17 1.484e-17
5059.645 8.201e-17 1.571e-17
5060.731 2.652e-17 1.497e-17
5061.817 5.365e-17 1.551e-17
5062.902 6.539e-17 1.561e-17
5063.988 5.645e-17 1.552e-17
5065.073 6.311e-17 1.614e-17
5066.159 5.907e-17 1.571e-17
5067.244 4.718e-17 1.545e-17
5068.33 5.071e-17 1.577e-17
5069.416 4.586e-17 1.628e-17
5070.501 6.972e-17 1.657e-17
5071.587 5.685e-17 1.674e-17
5072.672 3.785e-17 1.55e-17
5073.758 2.87e-17 1.577e-17
5074.843 6.878e-17 1.599e-17
5075.929 5.746e-17 1.594e-17
5077.014 3.767e-17 1.556e-17
5078.099 6.862e-17 1.62e-17
5079.185 5.101e-17 1.577e-17
5080.27 3.475e-17 1.612e-17
5081.356 3.109e-17 1.708e-17
5082.44 8.759e-17 1.858e-17
5083.526 7.823e-17 1.839e-17
5084.612 5.333e-17 1.875e-17
5085.696 7.976e-17 1.929e-17
5086.782 4.889e-17 1.886e-17
5087.867 3.37e-17 1.811e-17
5088.952 9.843e-17 1.809e-17
5090.037 4.803e-17 1.688e-17
5091.123 6.873e-17 1.679e-17
5092.208 6.226e-17 1.637e-17
5093.292 3.834e-17 1.601e-17
5094.378 5.095e-17 1.585e-17
5095.463 2.032e-17 1.54e-17
5096.548 6.487e-17 1.62e-17
5097.633 7.394e-17 1.705e-17
5098.718 5.8e-17 1.654e-17
5099.803 6.985e-17 1.685e-17
5100.888 6.284e-17 1.702e-17
5101.973 2.849e-17 1.669e-17
5103.058 6.199e-17 1.663e-17
5104.142 7.226e-17 1.595e-17
5105.228 3.723e-17 1.59e-17
5106.313 1.996e-17 1.535e-17
5107.398 4.625e-17 1.609e-17
5108.482 2.861e-17 1.556e-17
5109.567 7.315e-17 1.633e-17
5110.652 5.721e-17 1.624e-17
5111.736 8.597e-17 1.635e-17
5112.821 6.26e-17 1.599e-17
5113.906 4.845e-17 1.643e-17
5114.991 4.848e-17 1.631e-17
5116.075 2.574e-17 1.572e-17
5117.16 2.962e-17 1.598e-17
5118.245 6.384e-17 1.645e-17
5119.329 7.803e-17 1.681e-17
5120.414 5.974e-17 1.606e-17
5121.499 6.216e-17 1.648e-17
5122.584 2.304e-17 1.527e-17
5123.668 3.934e-17 1.574e-17
5124.753 1.626e-17 1.529e-17
5125.837 3.573e-17 1.553e-17
5126.921 5.938e-17 1.616e-17
5128.006 5.687e-17 1.574e-17
5129.091 5.657e-17 1.572e-17
5130.175 3.637e-17 1.584e-17
5131.259 2.459e-17 1.586e-17
5132.344 7.293e-17 1.655e-17
5133.428 5.452e-17 1.638e-17
5134.512 5.358e-17 1.64e-17
5135.597 5.004e-17 1.615e-17
5136.681 7.073e-17 1.672e-17
5137.766 6.596e-17 1.633e-17
5138.849 6.063e-17 1.611e-17
5139.934 8.832e-17 1.68e-17
5141.018 5.888e-17 1.653e-17
5142.102 5.611e-17 1.654e-17
5143.186 4.4e-17 1.648e-17
5144.271 1.53e-17 1.625e-17
5145.354 7.582e-17 1.703e-17
5146.439 6.085e-17 1.658e-17
5147.523 9.311e-17 1.745e-17
5148.607 9.433e-17 1.802e-17
5149.691 4.568e-17 1.685e-17
5150.775 8.304e-17 1.762e-17
5151.859 8.586e-17 1.787e-17
5152.943 2.506e-17 1.755e-17
5154.027 8.118e-17 1.825e-17
5155.111 5.8e-17 1.784e-17
5156.195 3.385e-17 1.758e-17
5157.278 1.903e-17 1.68e-17
5158.363 5.566e-17 1.729e-17
5159.447 6.128e-17 1.746e-17
5160.53 6.232e-17 1.724e-17
5161.614 9.256e-17 1.762e-17
5162.698 3.675e-17 1.68e-17
5163.782 5.812e-17 1.657e-17
5164.865 6.463e-17 1.691e-17
5165.949 5.905e-17 1.694e-17
5167.033 4.142e-17 1.65e-17
5168.116 6.389e-17 1.658e-17
5169.2 4.963e-17 1.677e-17
5170.284 7.804e-17 1.654e-17
5171.368 5.968e-17 1.681e-17
5172.451 2.478e-17 1.609e-17
5173.534 7.469e-17 1.683e-17
5174.618 5.445e-17 1.678e-17
5175.701 6.427e-17 1.747e-17
5176.785 6.07e-17 1.712e-17
5177.869 5.967e-17 1.68e-17
5178.952 3.223e-17 1.686e-17
5180.035 6.005e-17 1.68e-17
5181.119 2.275e-17 1.603e-17
5182.202 6.392e-17 1.685e-17
5183.285 3.571e-17 1.643e-17
5184.369 1.337e-17 1.631e-17
5185.452 7.394e-17 1.686e-17
5186.536 1.027e-16 1.766e-17
5187.618 7.22e-17 1.763e-17
5188.702 5.518e-17 1.775e-17
5189.785 6.448e-17 1.781e-17
5190.868 5.594e-17 1.772e-17
5191.951 8.1e-17 1.808e-17
5193.035 4.887e-17 1.715e-17
5194.117 7.002e-17 1.765e-17
5195.2 4.932e-17 1.7e-17
5196.284 5.041e-17 1.743e-17
5197.367 6.461e-17 1.844e-17
5198.449 4.997e-17 1.914e-17
5199.533 6.351e-17 2.006e-17
5200.616 3.781e-17 1.9e-17
5201.698 3.364e-17 1.892e-17
5202.781 5.545e-17 1.846e-17
5203.864 1.858e-17 1.798e-17
5204.948 4.436e-17 1.785e-17
5206.03 7.639e-17 1.766e-17
5207.113 6.613e-17 1.737e-17
5208.196 4.637e-17 1.732e-17
5209.278 4.973e-17 1.766e-17
5210.361 3.074e-17 1.767e-17
5211.444 1.099e-16 1.885e-17
5212.527 4.542e-17 1.774e-17
5213.609 2.484e-17 1.752e-17
5214.692 7.943e-17 1.82e-17
5215.775 5.782e-17 1.723e-17
5216.857 7.427e-17 1.804e-17
5217.94 4.144e-17 1.774e-17
5219.022 8.221e-17 1.878e-17
5220.105 5.375e-17 1.806e-17
5221.187 7.648e-17 1.862e-17
5222.27 4.569e-17 1.803e-17
5223.353 4.752e-17 1.832e-17
5224.434 6.092e-17 1.887e-17
5225.517 8.08e-17 1.901e-17
5226.6 5.129e-17 1.778e-17
5227.682 7.83e-17 1.814e-17
5228.764 2.785e-17 1.746e-17
5229.846 6.704e-17 1.819e-17
5230.929 5.428e-17 1.809e-17
5232.011 6.952e-17 1.811e-17
5233.093 9.522e-17 1.901e-17
5234.176 7.414e-17 1.818e-17
5235.258 6.141e-17 1.829e-17
5236.339 4.354e-17 1.764e-17
5237.422 6.672e-17 1.879e-17
5238.504 7.861e-17 1.909e-17
5239.586 7.103e-17 1.918e-17
5240.668 6.18e-17 1.866e-17
5241.75 9.345e-17 1.872e-17
5242.833 6.55e-17 1.812e-17
5243.914 5.463e-17 1.808e-17
5244.996 3.373e-17 1.716e-17
5246.078 9.023e-17 1.826e-17
5247.159 4.978e-17 1.791e-17
5248.242 7.083e-17 1.856e-17
5249.324 1.256e-17 1.729e-17
5250.406 4.909e-17 1.803e-17
5251.487 1.088e-16 1.93e-17
5252.569 7.425e-17 1.908e-17
5253.651 9.887e-17 1.886e-17
5254.732 4.759e-17 1.858e-17
5255.814 4.533e-17 1.873e-17
5256.896 3.806e-17 1.852e-17
5257.977 3.424e-17 1.852e-17
5259.059 7.867e-17 1.951e-17
5260.141 7.043e-17 1.92e-17
5261.222 5.772e-17 1.809e-17
5262.303 9.788e-18 1.771e-17
5263.385 1.029e-16 1.901e-17
5264.467 4.601e-17 1.791e-17
5265.547 4.353e-17 1.808e-17
5266.629 9.55e-17 1.871e-17
5267.711 3.449e-17 1.834e-17
5268.792 7.062e-17 1.872e-17
5269.873 5.001e-17 1.861e-17
5270.955 4.929e-17 1.833e-17
5272.036 4.306e-17 1.856e-17
5273.117 8.844e-17 1.904e-17
5274.198 5.758e-17 1.89e-17
5275.28 5.076e-17 1.896e-17
5276.361 8.003e-17 1.989e-17
5277.442 5.407e-17 1.915e-17
5278.523 3.731e-17 1.868e-17
5279.604 7.257e-17 1.928e-17
5280.685 7.667e-17 1.862e-17
5281.766 5.901e-17 1.835e-17
5282.847 7.689e-17 1.895e-17
5283.929 6.108e-17 1.884e-17
5285.009 4.958e-17 1.922e-17
5286.09 9.678e-17 1.975e-17
5287.171 2.515e-17 1.896e-17
5288.252 4.054e-17 1.912e-17
5289.333 3.951e-17 1.893e-17
5290.414 8.596e-17 1.964e-17
5291.495 8.073e-17 1.934e-17
5292.575 4.871e-17 1.91e-17
5293.656 7.733e-17 1.969e-17
5294.737 1.02e-16 1.996e-17
5295.817 9.164e-17 1.998e-17
5296.898 6.599e-17 1.949e-17
5297.979 6.854e-17 1.961e-17
5299.06 8.964e-17 2.014e-17
5300.139 7.916e-17 2.053e-17
5301.22 1.031e-16 2.01e-17
5302.301 5.134e-17 1.935e-17
5303.381 7.445e-17 2.018e-17
5304.462 3.475e-17 1.919e-17
5305.542 6.545e-17 2.003e-17
5306.623 3.33e-17 1.956e-17
5307.703 8.64e-17 2.029e-17
5308.783 8.028e-17 1.964e-17
5309.864 3.039e-18 1.903e-17
5310.943 7.457e-17 2.024e-17
5312.024 3.456e-17 1.973e-17
5313.105 5.456e-17 2.037e-17
5314.184 6.63e-17 2.133e-17
5315.264 6.772e-17 2.013e-17
5316.345 3.811e-17 1.999e-17
5317.425 6.72e-17 2.05e-17
5318.505 3.348e-17 2.02e-17
5319.585 5.986e-17 2.068e-17
5320.665 3.722e-17 2.064e-17
5321.745 5.624e-17 2.038e-17
5322.825 7.588e-17 2.102e-17
5323.905 8.425e-17 2.155e-17
5324.985 4.568e-17 2.084e-17
5326.064 6.412e-17 2.094e-17
5327.145 5.341e-17 2.08e-17
5328.225 5.727e-17 2.093e-17
5329.304 1.005e-17 2.065e-17
5330.384 2.831e-17 2.075e-17
5331.464 6.91e-17 2.175e-17
5332.544 2.061e-17 2.115e-17
5333.623 4.024e-17 2.127e-17
5334.703 6.614e-17 2.16e-17
5335.783 9.751e-17 2.264e-17
5336.861 2.096e-17 2.092e-17
5337.941 5.795e-17 2.19e-17
5339.021 6.605e-17 2.207e-17
5340.101 3.364e-17 2.179e-17
5341.18 7.345e-17 2.238e-17
5342.259 4.148e-17 2.251e-17
5343.339 5.754e-17 2.287e-17
5344.418 7.959e-17 2.284e-17
5345.497 7.33e-17 2.309e-17
5346.577 6.695e-17 2.257e-17
5347.657 5.775e-17 2.299e-17
5348.735 4.224e-17 2.348e-17
5349.815 8.865e-17 2.442e-17
5350.894 5.006e-17 2.395e-17
5351.973 8.829e-17 2.36e-17
5353.052 4.588e-17 2.622e-17
5354.131 3.982e-17 2.577e-17
5355.211 5.476e-17 2.696e-17
5356.289 3.864e-17 2.609e-17
5357.368 4.258e-17 2.644e-17
5358.448 2.414e-17 2.594e-17
5359.526 1.165e-17 2.538e-17
5360.605 5.366e-17 2.549e-17
5361.684 2.608e-17 2.449e-17
5362.763 6.608e-17 2.588e-17
5363.841 2.321e-17 2.482e-17
5364.921 6.977e-17 2.602e-17
5366.0 3.39e-17 2.491e-17
5367.078 9.076e-17 2.634e-17
5368.157 4.346e-17 2.551e-17
5369.236 9.267e-18 2.503e-17
5370.315 3.434e-17 2.544e-17
5371.392 4.274e-17 2.531e-17
5372.471 4.507e-17 2.502e-17
5373.55 8.171e-17 2.64e-17
5374.628 4.047e-17 2.555e-17
5375.707 8.797e-17 2.634e-17
5376.785 7.335e-17 2.58e-17
5377.864 4.59e-17 2.546e-17
5378.942 8.304e-17 2.6e-17
5380.021 7.634e-17 2.551e-17
5381.099 5.554e-17 2.529e-17
5382.177 5.312e-17 2.537e-17
5383.255 5.794e-17 2.532e-17
5384.334 2.157e-17 2.497e-17
5385.412 5.895e-17 2.557e-17
5386.49 5.424e-17 2.55e-17
5387.568 8.483e-17 2.548e-17
5388.647 5.689e-17 2.486e-17
5389.724 4.981e-17 2.548e-17
5390.802 5.31e-17 2.569e-17
5391.881 3.859e-17 2.546e-17
5392.958 2.707e-17 2.546e-17
5394.036 7.337e-17 2.608e-17
5395.114 3.956e-17 2.53e-17
5396.192 3.929e-17 2.509e-17
5397.27 7.476e-17 2.556e-17
5398.348 7.878e-17 2.532e-17
5399.426 5.308e-17 2.552e-17
5400.503 3.536e-17 2.538e-17
5401.581 5.905e-17 2.548e-17
5402.659 6.916e-17 2.533e-17
5403.737 3.623e-17 2.55e-17
5404.814 5.201e-17 2.529e-17
5405.892 4.344e-17 2.522e-17
5406.969 6.097e-17 2.56e-17
5408.046 4.148e-17 2.559e-17
5409.124 2.501e-17 2.538e-17
5410.202 4.166e-17 2.539e-17
5411.279 5.185e-17 2.549e-17
5412.356 6.503e-17 2.603e-17
5413.434 7.99e-17 2.64e-17
5414.511 6.754e-17 2.646e-17
5415.588 3.784e-17 2.606e-17
5416.666 3.044e-17 2.592e-17
5417.743 7.247e-17 2.656e-17
5418.821 5.196e-17 2.654e-17
5419.897 6.313e-17 2.639e-17
5420.974 4.584e-17 2.606e-17
5422.052 2.58e-17 2.579e-17
5423.128 7.208e-17 2.637e-17
5424.206 4.821e-17 2.585e-17
5425.283 6.624e-17 2.655e-17
5426.36 4.193e-17 2.617e-17
5427.436 2.668e-17 2.547e-17
5428.513 3.844e-17 2.541e-17
5429.591 2.512e-17 2.522e-17
5430.667 2.138e-17 2.526e-17
5431.744 3.565e-17 2.56e-17
5432.821 2.369e-17 2.567e-17
5433.898 7.419e-17 2.595e-17
5434.974 5.058e-17 2.576e-17
5436.051 4.563e-17 2.554e-17
5437.128 3.81e-17 2.559e-17
5438.204 6.325e-17 2.607e-17
5439.281 4.266e-17 2.545e-17
5440.357 6.333e-17 2.602e-17
5441.434 4.083e-17 2.547e-17
5442.51 3.83e-17 2.532e-17
5443.587 1.178e-17 2.53e-17
5444.663 3.555e-17 2.537e-17
5445.739 4.045e-17 2.555e-17
5446.816 3.037e-17 2.559e-17
5447.892 3.687e-17 2.553e-17
5448.969 3.048e-17 2.543e-17
5450.044 3.996e-17 2.553e-17
5451.121 6.78e-18 2.494e-17
5452.197 2.98e-17 2.517e-17
5453.272 2.697e-17 2.536e-17
5454.349 5.913e-17 2.575e-17
5455.425 2.564e-17 2.64e-17
5456.502 2.614e-18 2.747e-17
5457.577 1.631e-17 2.916e-17
5458.653 8.876e-17 3.177e-17
5459.729 4.92e-17 3.357e-17
5460.804 4.115e-17 3.403e-17
5461.881 6.414e-17 3.356e-17
5462.957 6.761e-17 3.173e-17
5464.033 5.52e-17 2.956e-17
5465.108 1.638e-17 2.778e-17
5466.184 7.207e-17 2.734e-17
5467.26 4.172e-17 2.636e-17
5468.335 6.168e-17 2.587e-17
5469.41 8.311e-17 2.562e-17
5470.486 5.122e-17 2.483e-17
5471.562 4.941e-17 2.471e-17
5472.637 5.428e-17 2.465e-17
5473.713 5.307e-17 2.428e-17
5474.788 5.568e-17 2.411e-17
5475.863 5.661e-17 2.401e-17
5476.939 4.898e-17 2.377e-17
5478.014 6.58e-17 2.412e-17
5479.089 3.902e-17 2.371e-17
5480.164 3.35e-17 2.367e-17
5481.24 5.295e-17 2.41e-17
5482.315 5.753e-17 2.394e-17
5483.39 3.397e-17 2.378e-17
5484.465 4.664e-17 2.381e-17
5485.54 4.808e-17 2.351e-17
5486.615 4.789e-17 2.321e-17
5487.69 5.111e-17 2.3e-17
5488.765 4.85e-17 2.276e-17
5489.841 4.237e-17 2.284e-17
5490.915 6.333e-17 2.294e-17
5491.99 3.878e-17 2.255e-17
5493.065 1.816e-17 2.221e-17
5494.139 4.196e-17 2.22e-17
5495.214 4.733e-17 2.21e-17
5496.289 2.865e-17 2.181e-17
5497.364 4.109e-17 2.176e-17
5498.438 5.635e-17 2.177e-17
5499.544 8.296e-17 1.823e-17
5501.061 2.961e-17 1.784e-17
5502.577 8.566e-17 1.789e-17
5504.094 1.616e-17 1.721e-17
5505.61 7.708e-17 1.777e-17
5507.127 3.128e-17 1.713e-17
5508.644 5.845e-17 1.712e-17
5510.161 5.417e-17 1.729e-17
5511.678 3.808e-17 1.671e-17
5513.194 3.744e-17 1.667e-17
5514.711 2.52e-17 1.645e-17
5516.229 4.661e-17 1.65e-17
5517.745 2.699e-17 1.612e-17
5519.262 5.013e-17 1.633e-17
5520.778 3.848e-17 1.602e-17
5522.296 4.352e-17 1.583e-17
5523.813 3.009e-17 1.572e-17
5525.33 4.353e-17 1.558e-17
5526.847 6.402e-17 1.541e-17
5528.364 5.83e-17 1.528e-17
5529.881 5.012e-17 1.507e-17
5531.399 6e-17 1.489e-17
5532.915 3.013e-17 1.477e-17
5534.433 3.159e-17 1.461e-17
5535.949 4.844e-17 1.45e-17
5537.467 5.884e-17 1.478e-17
5538.983 3.635e-17 1.444e-17
5540.501 6.762e-17 1.462e-17
5542.019 5.67e-17 1.47e-17
5543.536 4.658e-17 1.451e-17
5545.053 4.591e-17 1.435e-17
5546.57 2.594e-17 1.419e-17
5548.088 4.778e-17 1.441e-17
5549.606 2.621e-17 1.394e-17
5551.123 4.58e-17 1.411e-17
5552.64 6.311e-17 1.42e-17
5554.157 5.753e-17 1.396e-17
5555.675 6.388e-17 1.401e-17
5557.193 7.59e-17 1.426e-17
5558.71 4.146e-17 1.392e-17
5560.228 3.801e-17 1.404e-17
5561.745 3.041e-17 1.417e-17
5563.263 7.179e-17 1.422e-17
5564.781 3.804e-17 1.405e-17
5566.299 4.103e-17 1.425e-17
5567.817 4.093e-17 1.424e-17
5569.334 2.634e-17 1.433e-17
5570.852 3.195e-17 1.637e-17
5572.37 4.833e-17 2.505e-17
5573.888 7.857e-17 3.227e-17
5575.406 2.651e-17 3.511e-17
5576.923 6.16e-17 3.681e-17
5578.441 -2.207e-17 3.33e-17
5579.96 -7.178e-18 2.735e-17
5581.477 7.352e-17 2.362e-17
5582.995 5.5e-17 2.068e-17
5584.513 5.385e-17 1.811e-17
5586.031 2.13e-17 1.627e-17
5587.55 5.909e-17 1.528e-17
5589.067 2.086e-17 1.445e-17
5590.586 2.967e-17 1.406e-17
5592.103 6.615e-17 1.444e-17
5593.622 3.007e-17 1.398e-17
5595.14 6.734e-17 1.408e-17
5596.658 4.106e-17 1.385e-17
5598.177 5.117e-17 1.411e-17
5599.695 2.113e-17 1.369e-17
5601.213 1.342e-17 1.368e-17
5602.731 3.356e-17 1.397e-17
5604.25 2.77e-17 1.377e-17
5605.768 2.022e-17 1.375e-17
5607.286 3.135e-17 1.385e-17
5608.805 4.406e-17 1.382e-17
5610.323 6.259e-17 1.392e-17
5611.842 4.049e-17 1.367e-17
5613.361 2.513e-17 1.354e-17
5614.879 3.509e-17 1.357e-17
5616.398 3.737e-17 1.371e-17
5617.916 7.822e-18 1.336e-17
5619.435 3.949e-17 1.356e-17
5620.954 6.545e-17 1.39e-17
5622.472 2.073e-17 1.333e-17
5623.991 6.347e-17 1.371e-17
5625.509 5.517e-17 1.343e-17
5627.028 3.241e-17 1.322e-17
5628.547 3.062e-17 1.3e-17
5630.065 4.599e-17 1.321e-17
5631.585 5.175e-17 1.306e-17
5633.103 5.669e-17 1.309e-17
5634.622 1.487e-17 1.291e-17
5636.141 3.78e-17 1.28e-17
5637.66 5.698e-17 1.295e-17
5639.179 3.161e-17 1.268e-17
5640.697 2.799e-17 1.276e-17
5642.217 4.881e-17 1.277e-17
5643.735 2.557e-17 1.252e-17
5645.255 4.025e-17 1.265e-17
5646.774 4.882e-17 1.248e-17
5648.293 3.424e-17 1.244e-17
5649.812 3.906e-17 1.25e-17
5651.331 6.375e-17 1.244e-17
5652.85 4.657e-17 1.244e-17
5654.37 1.919e-17 1.207e-17
5655.888 5.754e-17 1.229e-17
5657.408 5.752e-17 1.226e-17
5658.927 2.607e-17 1.202e-17
5660.446 4.257e-17 1.202e-17
5661.966 4.989e-17 1.226e-17
5663.485 4.131e-17 1.219e-17
5665.005 1.393e-17 1.197e-17
5666.523 4.796e-17 1.243e-17
5668.043 4.931e-17 1.253e-17
5669.563 3.482e-17 1.247e-17
5671.082 3.21e-17 1.25e-17
5672.602 2.358e-17 1.245e-17
5674.121 3.267e-17 1.23e-17
5675.641 3.244e-17 1.226e-17
5677.16 3.234e-17 1.243e-17
5678.679 7.141e-17 1.293e-17
5680.199 3.412e-17 1.298e-17
5681.719 3.03e-17 1.34e-17
5683.239 2.127e-17 1.358e-17
5684.759 1.594e-17 1.396e-17
5686.278 3.618e-17 1.428e-17
5687.798 2.628e-17 1.411e-17
5689.317 5.434e-17 1.417e-17
5690.837 1.308e-17 1.361e-17
5692.356 1.712e-17 1.314e-17
5693.877 6.098e-17 1.314e-17
5695.397 4.942e-17 1.283e-17
5696.916 4.477e-17 1.265e-17
5698.437 1.821e-17 1.215e-17
5699.956 3.02e-17 1.209e-17
5701.476 4.484e-17 1.203e-17
5702.997 4.201e-17 1.188e-17
5704.516 2.203e-17 1.166e-17
5706.036 6.312e-17 1.189e-17
5707.556 1.698e-17 1.145e-17
5709.076 4.744e-17 1.18e-17
5710.597 3.404e-17 1.173e-17
5712.116 2.18e-17 1.155e-17
5713.637 5.023e-17 1.163e-17
5715.157 5.978e-17 1.173e-17
5716.677 3.762e-17 1.153e-17
5718.198 5.247e-17 1.164e-17
5719.717 5.73e-17 1.161e-17
5721.238 3.566e-17 1.145e-17
5722.758 4.088e-17 1.141e-17
5724.279 5.299e-17 1.141e-17
5725.799 3.626e-17 1.136e-17
5727.319 4.63e-17 1.132e-17
5728.84 4.991e-17 1.124e-17
5730.36 5.008e-17 1.121e-17
5731.881 4.664e-17 1.121e-17
5733.401 4.416e-17 1.121e-17
5734.921 3.765e-17 1.105e-17
5736.442 3.425e-17 1.109e-17
5737.962 4.923e-17 1.115e-17
5739.483 5.071e-17 1.116e-17
5741.003 3.565e-17 1.098e-17
5742.524 4.437e-17 1.112e-17
5744.045 5.745e-17 1.123e-17
5745.565 1.864e-17 1.09e-17
5747.086 4.338e-17 1.109e-17
5748.606 5.468e-17 1.117e-17
5750.128 3.068e-17 1.109e-17
5751.649 2.339e-17 1.101e-17
5753.169 6.885e-17 1.135e-17
5754.69 2.519e-17 1.102e-17
5756.21 3.571e-17 1.123e-17
5757.732 6.03e-17 1.143e-17
5759.253 3.552e-17 1.126e-17
5760.773 6.583e-17 1.147e-17
5762.295 4.008e-17 1.145e-17
5763.815 5.323e-17 1.189e-17
5765.336 6.639e-17 1.246e-17
5766.858 6e-17 1.267e-17
5768.378 1.68e-17 1.256e-17
5769.9 4.929e-17 1.277e-17
5771.42 5.5e-17 1.235e-17
5772.942 4.039e-17 1.216e-17
5774.463 2.832e-17 1.164e-17
5775.984 9.635e-18 1.13e-17
5777.505 5.681e-17 1.143e-17
5779.026 4.542e-17 1.136e-17
5780.548 3.244e-17 1.126e-17
5782.068 4.145e-17 1.131e-17
5783.59 3.36e-17 1.138e-17
5785.112 3.972e-17 1.181e-17
5786.632 2.938e-17 1.218e-17
5788.154 3.932e-17 1.261e-17
5789.675 4.013e-17 1.279e-17
5791.197 3.142e-17 1.261e-17
5792.718 4.808e-17 1.226e-17
5794.239 3.409e-17 1.2e-17
5795.761 3e-17 1.177e-17
5797.282 4.345e-17 1.154e-17
5798.804 6.13e-17 1.162e-17
5800.326 2.267e-17 1.13e-17
5801.847 3.037e-17 1.134e-17
5803.369 3.595e-17 1.141e-17
5804.89 4.523e-17 1.148e-17
5806.412 4.525e-17 1.136e-17
5807.934 5.573e-17 1.154e-17
5809.455 4.889e-17 1.137e-17
5810.977 3.951e-17 1.123e-17
5812.498 4.482e-17 1.145e-17
5814.02 2.974e-17 1.124e-17
5815.543 4.881e-17 1.132e-17
5817.064 2.327e-17 1.121e-17
5818.586 2.505e-17 1.128e-17
5820.107 5.547e-17 1.143e-17
5821.63 3.417e-17 1.132e-17
5823.151 4.509e-17 1.147e-17
5824.673 5.242e-17 1.144e-17
5826.196 7.071e-17 1.166e-17
5827.717 4.379e-17 1.147e-17
5829.239 5.469e-17 1.154e-17
5830.761 5.271e-17 1.157e-17
5832.283 3.897e-17 1.155e-17
5833.806 2.903e-17 1.148e-17
5835.327 5.787e-17 1.176e-17
5836.85 3.968e-17 1.164e-17
5838.371 7.044e-17 1.17e-17
5839.894 5.936e-17 1.185e-17
5841.416 3.115e-17 1.157e-17
5842.938 6.308e-17 1.173e-17
5844.46 3.165e-17 1.158e-17
5845.982 3.012e-17 1.161e-17
5847.505 3.323e-17 1.155e-17
5849.028 5.651e-17 1.182e-17
5850.549 2.072e-17 1.165e-17
5852.072 3.554e-17 1.169e-17
5853.594 1.086e-17 1.157e-17
5855.117 5.822e-17 1.193e-17
5856.639 1.987e-17 1.171e-17
5858.161 4.506e-17 1.196e-17
5859.684 5.24e-17 1.2e-17
5861.206 4.963e-17 1.211e-17
5862.729 4.124e-17 1.23e-17
5864.251 3.702e-17 1.264e-17
5865.774 2.438e-17 1.264e-17
5867.297 1.419e-17 1.26e-17
5868.819 3.111e-17 1.271e-17
5870.342 4.853e-17 1.263e-17
5871.864 3.474e-17 1.232e-17
5873.387 7.245e-17 1.248e-17
5874.91 3.628e-17 1.205e-17
5876.432 5.77e-17 1.214e-17
5877.955 4.831e-17 1.203e-17
5879.477 4.525e-17 1.181e-17
5881.001 6.913e-17 1.19e-17
5882.524 5.593e-17 1.215e-17
5884.046 5.828e-17 1.404e-17
5885.569 2.023e-17 1.754e-17
5887.092 1.93e-17 1.977e-17
5888.615 3.647e-17 2.092e-17
5890.138 2.369e-17 2.173e-17
5891.661 4.642e-17 2.202e-17
5893.184 8.501e-17 2.168e-17
5894.706 4.836e-17 2.125e-17
5896.23 2.545e-17 2.012e-17
5897.753 1.608e-17 1.735e-17
5899.276 2.357e-17 1.512e-17
5900.799 4.176e-17 1.38e-17
5902.322 3.897e-17 1.282e-17
5903.845 3.554e-17 1.231e-17
5905.368 2.836e-17 1.2e-17
5906.892 4.818e-17 1.185e-17
5908.415 3.656e-17 1.173e-17
5909.938 2.23e-17 1.182e-17
5911.461 1.318e-17 1.21e-17
5912.984 4.047e-17 1.226e-17
5914.508 4.931e-17 1.243e-17
5916.032 4.429e-17 1.231e-17
5917.554 1.445e-17 1.185e-17
5919.078 2.844e-17 1.194e-17
5920.601 4.735e-17 1.193e-17
5922.125 3.964e-17 1.191e-17
5923.649 4.601e-17 1.195e-17
5925.171 1.345e-17 1.186e-17
5926.695 1.338e-17 1.194e-17
5928.218 4.695e-17 1.24e-17
5929.742 5.216e-17 1.245e-17
5931.266 2.806e-17 1.248e-17
5932.789 3.424e-17 1.259e-17
5934.313 3.299e-17 1.235e-17
5935.836 3.119e-17 1.201e-17
5937.36 4.699e-17 1.189e-17
5938.883 3.047e-17 1.156e-17
5940.407 5.068e-17 1.167e-17
5941.931 4.255e-17 1.167e-17
5943.455 2.995e-17 1.153e-17
5944.979 2.784e-17 1.157e-17
5946.502 4.128e-17 1.162e-17
5948.026 3.467e-17 1.165e-17
5949.55 1.732e-17 1.181e-17
5951.074 4.407e-17 1.207e-17
5952.598 2.089e-17 1.201e-17
5954.121 6.442e-17 1.215e-17
5955.646 3.947e-17 1.177e-17
5957.17 3.293e-17 1.155e-17
5958.693 3.743e-17 1.14e-17
5960.218 4.024e-17 1.139e-17
5961.741 5.815e-17 1.139e-17
5963.265 4.399e-17 1.13e-17
5964.79 4.261e-17 1.134e-17
5966.313 1.291e-17 1.12e-17
5967.838 3.961e-17 1.141e-17
5969.361 4.246e-17 1.151e-17
5970.886 2.977e-17 1.147e-17
5972.411 2.342e-17 1.13e-17
5973.934 4.35e-17 1.155e-17
5975.459 3.519e-17 1.159e-17
5976.982 5.552e-17 1.168e-17
5978.507 3.283e-17 1.142e-17
5980.031 2.71e-17 1.12e-17
5981.556 3.232e-17 1.136e-17
5983.08 3.003e-17 1.108e-17
5984.604 3.672e-17 1.121e-17
5986.129 4.679e-17 1.13e-17
5987.653 2.461e-17 1.112e-17
5989.177 3.926e-17 1.124e-17
5990.702 2.557e-17 1.102e-17
5992.226 5.894e-17 1.131e-17
5993.751 5.109e-17 1.134e-17
5995.275 3.749e-17 1.124e-17
5996.8 3.96e-17 1.114e-17
5998.325 4.486e-17 1.124e-17
5999.849 1.812e-17 1.118e-17
6001.374 3.557e-17 1.121e-17
6002.898 4.588e-17 1.133e-17
6004.423 6.215e-17 1.139e-17
6005.948 4.315e-17 1.111e-17
6007.472 6.121e-17 1.115e-17
6008.997 4.292e-17 1.096e-17
6010.521 2.021e-17 1.071e-17
6012.046 3.409e-17 1.089e-17
6013.571 2.505e-17 1.081e-17
6015.096 4.304e-17 1.083e-17
6016.621 4.322e-17 1.083e-17
6018.145 4.171e-17 1.083e-17
6019.671 5.927e-17 1.096e-17
6021.195 3.766e-17 1.079e-17
6022.72 2.99e-17 1.071e-17
6024.246 3.91e-17 1.072e-17
6025.77 5.353e-17 1.094e-17
6027.295 4.056e-17 1.09e-17
6028.82 3.566e-17 1.082e-17
6030.345 3.55e-17 1.08e-17
6031.871 2.208e-17 1.086e-17
6033.395 3.26e-17 1.085e-17
6034.921 3.769e-17 1.076e-17
6036.445 2.64e-17 1.055e-17
6037.971 3.223e-17 1.06e-17
6039.496 4.981e-17 1.074e-17
6041.021 1.268e-17 1.038e-17
6042.546 4.26e-17 1.057e-17
6044.071 3.511e-17 1.048e-17
6045.597 2.667e-17 1.051e-17
6047.121 1.803e-17 1.045e-17
6048.647 1.175e-17 1.031e-17
6050.173 4.064e-17 1.054e-17
6051.697 4.604e-17 1.044e-17
6053.223 5.167e-17 1.044e-17
6054.748 5.814e-17 1.056e-17
6056.274 3.819e-17 1.032e-17
6057.8 6.648e-17 1.06e-17
6059.324 4.86e-17 1.05e-17
6060.85 3.413e-17 1.03e-17
6062.375 3.368e-17 1.038e-17
6063.901 2.973e-17 1.037e-17
6065.427 3.622e-17 1.035e-17
6066.952 7.414e-17 1.059e-17
6068.478 4.091e-17 1.036e-17
6070.003 5.454e-17 1.052e-17
6071.529 2.984e-17 1.031e-17
6073.055 4.274e-17 1.047e-17
6074.58 3.621e-17 1.016e-17
6076.106 2.475e-17 1.014e-17
6077.631 2.265e-17 1.011e-17
6079.157 4.234e-17 1.024e-17
6080.683 1.123e-17 9.981e-18
6082.209 2.99e-17 1.008e-17
6083.735 2.868e-17 1.016e-17
6085.26 2.822e-17 1.028e-17
6086.786 4.082e-17 1.02e-17
6088.312 3.031e-17 1.006e-17
6089.838 3.309e-17 1.02e-17
6091.364 2.539e-17 1.002e-17
6092.89 2.979e-17 1.024e-17
6094.416 3.556e-17 1.028e-17
6095.941 4.676e-17 1.032e-17
6097.468 4.635e-17 1.034e-17
6098.994 3.586e-17 1.035e-17
6100.52 4.779e-17 1.056e-17
6102.046 4.25e-17 1.052e-17
6103.572 3.94e-17 1.062e-17
6105.098 5.515e-17 1.086e-17
6106.625 5.219e-17 1.112e-17
6108.15 3.863e-17 1.136e-17
6109.677 4.36e-17 1.169e-17
6111.202 3.526e-17 1.183e-17
6112.729 3.88e-17 1.182e-17
6114.255 3.862e-17 1.172e-17
6115.781 3.813e-17 1.155e-17
6117.308 3.101e-17 1.129e-17
6118.834 2.924e-17 1.086e-17
6120.36 8.461e-18 1.049e-17
6121.886 3.015e-17 1.046e-17
6123.413 4.01e-17 1.05e-17
6124.94 5.295e-17 1.045e-17
6126.465 3.661e-17 1.022e-17
6127.992 2.976e-17 1.026e-17
6129.518 5.657e-17 1.042e-17
6131.045 4.241e-17 1.034e-17
6132.572 3.784e-17 1.027e-17
6134.098 5.247e-17 1.034e-17
6135.625 3.225e-17 1.039e-17
6137.151 2.597e-17 1.033e-17
6138.678 3.706e-17 1.027e-17
6140.205 4.159e-17 1.06e-17
6141.731 4.258e-17 1.059e-17
6143.258 4.289e-17 1.049e-17
6144.784 4.575e-17 1.042e-17
6146.311 6.52e-17 1.052e-17
6147.837 5.309e-17 1.03e-17
6149.364 6.484e-17 1.05e-17
6150.891 2.408e-17 1.019e-17
6152.417 3.764e-17 1.04e-17
6153.945 3.761e-17 1.036e-17
6155.471 4.476e-17 1.042e-17
6156.998 4.2e-17 1.038e-17
6158.525 4.599e-17 1.065e-17
6160.052 6.45e-17 1.063e-17
6161.579 3.828e-17 1.044e-17
6163.105 4.378e-17 1.027e-17
6164.633 1.888e-17 9.976e-18
6166.16 4.188e-17 1.003e-17
6167.686 3.377e-17 1.008e-17
6169.214 3.919e-17 1.02e-17
6170.74 4.019e-17 1.025e-17
6172.268 4.874e-17 1.026e-17
6173.795 2.675e-17 9.895e-18
6175.322 2.175e-17 9.78e-18
6176.849 3.108e-17 9.807e-18
6178.376 3.625e-17 9.773e-18
6179.903 2.439e-17 9.609e-18
6181.43 3.218e-17 9.665e-18
6182.957 4.252e-17 9.795e-18
6184.485 3.285e-17 9.588e-18
6186.012 6.319e-17 9.902e-18
6187.539 1.632e-17 9.559e-18
6189.066 3.404e-17 9.601e-18
6190.594 3.355e-17 9.727e-18
6192.121 2.228e-17 9.655e-18
6193.648 2.923e-17 9.611e-18
6195.176 5.339e-17 9.745e-18
6196.703 2.001e-17 9.483e-18
6198.23 3.302e-17 9.721e-18
6199.758 1.612e-17 9.687e-18
6201.285 1.269e-17 9.89e-18
6202.813 4.535e-17 1.007e-17
6204.34 3.787e-17 9.953e-18
6205.868 4.495e-17 9.888e-18
6207.395 4.313e-17 9.783e-18
6208.923 3.107e-17 9.828e-18
6210.451 3.348e-17 9.866e-18
6211.978 3.735e-17 9.76e-18
6213.506 2.936e-17 9.668e-18
6215.033 3.495e-17 9.627e-18
6216.561 4.828e-17 9.739e-18
6218.089 3.903e-17 9.825e-18
6219.616 3.651e-17 9.93e-18
6221.144 4.337e-17 9.854e-18
6222.671 3.975e-17 9.811e-18
6224.199 3.724e-17 9.659e-18
6225.728 5.38e-17 9.599e-18
6227.255 2.815e-17 9.349e-18
6228.783 3.705e-17 9.59e-18
6230.31 2.496e-17 9.802e-18
6231.838 1.888e-17 1.043e-17
6233.367 1.646e-17 1.096e-17
6234.894 6.125e-18 1.117e-17
6236.422 2.372e-17 1.122e-17
6237.95 4.524e-17 1.101e-17
6239.478 4.459e-17 1.069e-17
6241.005 3.702e-17 1.045e-17
6242.534 1.579e-17 1.011e-17
6244.062 5.016e-17 1.001e-17
6245.59 3.928e-17 9.855e-18
6247.118 4.383e-17 9.669e-18
6248.646 2.894e-17 9.394e-18
6250.174 4.605e-17 9.472e-18
6251.703 4.089e-17 9.549e-18
6253.23 4.05e-17 1.01e-17
6254.759 2.765e-17 1.064e-17
6256.287 6.124e-17 1.111e-17
6257.815 4.536e-17 1.11e-17
6259.344 3.676e-17 1.054e-17
6260.871 4.827e-17 1.055e-17
6262.4 4.849e-17 1.014e-17
6263.928 3.362e-17 1.008e-17
6265.457 3.283e-17 1.023e-17
6266.984 2.274e-17 9.987e-18
6268.513 3.644e-17 9.701e-18
6270.042 3.859e-17 9.489e-18
6271.57 1.903e-17 9.275e-18
6273.098 3.946e-17 9.584e-18
6274.626 5.111e-17 9.779e-18
6276.155 2.913e-17 1.014e-17
6277.684 3.438e-17 9.689e-18
6279.212 2.69e-17 9.765e-18
6280.741 3.038e-17 9.562e-18
6282.269 3.038e-17 9.947e-18
6283.798 3.505e-17 1.04e-17
6285.327 2.2e-17 1.05e-17
6286.855 1.672e-18 1.069e-17
6288.384 4.677e-17 1.074e-17
6289.912 2.088e-17 1.029e-17
6291.441 3.819e-17 9.763e-18
6292.97 3.892e-17 9.954e-18
6294.498 4.498e-17 1.154e-17
6296.027 3.328e-17 1.58e-17
6297.555 5.016e-17 1.949e-17
6299.085 4.99e-17 2.001e-17
6300.613 7.496e-17 1.887e-17
6302.142 3.164e-17 1.65e-17
6303.671 5.264e-17 1.4e-17
6305.199 1.677e-17 1.188e-17
6306.729 5.225e-17 1.186e-17
6308.257 1.849e-17 1.06e-17
6309.786 3.243e-17 9.684e-18
6311.316 3.812e-17 9.179e-18
6312.844 4.788e-17 9.666e-18
6314.373 3.274e-17 8.996e-18
6315.902 2.664e-17 9.148e-18
6317.431 3.687e-17 9.531e-18
6318.961 1.465e-17 8.852e-18
6320.489 4.054e-17 9.487e-18
6322.018 1.063e-17 9.705e-18
6323.547 1.398e-17 8.98e-18
6325.076 5.201e-17 9.432e-18
6326.605 1.717e-17 1.008e-17
6328.135 3.82e-17 1.014e-17
6329.664 3.142e-17 1.011e-17
6331.193 3.552e-17 9.596e-18
6332.722 3.469e-17 9.236e-18
6334.251 4.003e-17 9.404e-18
6335.781 4.011e-17 9.08e-18
6337.31 2.126e-17 8.994e-18
6338.839 3.475e-17 8.777e-18
6340.369 3.129e-17 8.884e-18
6341.897 3.971e-17 8.8e-18
6343.427 2.249e-17 8.831e-18
6344.957 2.478e-17 8.992e-18
6346.486 3.232e-17 9.205e-18
6348.015 3.788e-17 9.134e-18
6349.544 4.232e-17 9.174e-18
6351.074 3.233e-17 9.131e-18
6352.604 3.391e-17 9.36e-18
6354.133 3.373e-17 9.572e-18
6355.663 3.545e-17 9.599e-18
6357.192 3.483e-17 9.637e-18
6358.722 4.705e-17 1.063e-17
6360.251 4.227e-17 1.206e-17
6361.781 3.596e-17 1.274e-17
6363.311 2.455e-17 1.303e-17
6364.84 3.585e-17 1.234e-17
6366.37 2.952e-17 1.06e-17
6367.899 3.383e-17 9.555e-18
6369.429 3.807e-17 9.065e-18
6370.959 2.669e-17 8.821e-18
6372.488 3.227e-17 8.655e-18
6374.018 4.664e-17 8.946e-18
6375.547 2.131e-17 8.854e-18
6377.078 3.937e-17 9.044e-18
6378.608 3.741e-17 9.095e-18
6380.137 3.402e-17 9.06e-18
6381.667 4.489e-17 9.107e-18
6383.197 3.617e-17 9.182e-18
6384.727 2.868e-17 9.24e-18
6386.256 3.172e-17 9.24e-18
6387.786 2.467e-17 8.94e-18
6389.317 3.673e-17 8.888e-18
6390.846 3.61e-17 8.79e-18
6392.376 1.403e-17 8.583e-18
6393.906 2.63e-17 8.637e-18
6395.436 3.621e-17 8.713e-18
6396.967 3.451e-17 8.717e-18
6398.496 1.969e-17 8.843e-18
6400.027 2.972e-17 8.982e-18
6401.556 4.015e-17 9.047e-18
6403.087 3.225e-17 8.913e-18
6404.617 2.218e-17 8.711e-18
6406.147 5.13e-17 8.807e-18
6407.677 5.041e-17 8.904e-18
6409.207 2.283e-17 8.67e-18
6410.738 3.603e-17 8.78e-18
6412.267 2.435e-17 8.79e-18
6413.798 3.241e-17 8.883e-18
6415.329 2.952e-17 8.762e-18
6416.858 3.156e-17 8.79e-18
6418.389 2.218e-17 8.677e-18
6419.919 1.147e-17 8.698e-18
6421.449 1.37e-17 8.713e-18
6422.98 4.156e-17 8.86e-18
6424.51 2.47e-17 8.716e-18
6426.041 1.932e-17 8.69e-18
6427.571 2.525e-17 8.771e-18
6429.101 5.507e-17 8.917e-18
6430.632 2.495e-17 8.764e-18
6432.162 2.783e-17 8.735e-18
6433.693 2.318e-17 8.746e-18
6435.223 4.174e-17 8.754e-18
6436.754 2.385e-17 8.561e-18
6438.284 3.573e-17 8.734e-18
6439.815 1.965e-17 8.498e-18
6441.346 3.275e-17 8.644e-18
6442.876 3.986e-17 8.717e-18
6444.407 3.335e-17 8.551e-18
6445.937 2.214e-17 8.559e-18
6447.468 9.407e-18 8.402e-18
6448.999 2.313e-17 8.61e-18
6450.529 2.642e-17 8.64e-18
6452.06 3.606e-17 8.657e-18
6453.591 3.497e-17 8.682e-18
6455.122 2.954e-17 8.657e-18
6456.653 3.354e-17 8.602e-18
6458.183 2.189e-17 8.694e-18
6459.714 3.05e-17 8.922e-18
6461.245 5.336e-17 9.409e-18
6462.776 3.793e-17 9.594e-18
6464.306 2.407e-17 9.626e-18
6465.838 3.289e-17 9.708e-18
6467.369 7.313e-18 9.633e-18
6468.899 2.6e-17 9.694e-18
6470.431 3.692e-17 9.46e-18
6471.961 3.157e-17 9.245e-18
6473.492 2.26e-17 8.792e-18
6475.024 1.609e-17 8.561e-18
6476.554 1.402e-17 8.478e-18
6478.086 1.95e-17 8.477e-18
6479.616 3.562e-17 8.546e-18
6481.148 2.339e-17 8.211e-18
6482.679 2.113e-17 8.234e-18
6484.21 2.836e-17 8.171e-18
6485.741 4.341e-17 8.264e-18
6487.272 2.863e-17 8.179e-18
6488.803 3.568e-17 8.2e-18
6490.335 1.77e-17 8.079e-18
6491.866 3.62e-17 8.319e-18
6493.397 4.293e-17 8.788e-18
6494.928 2.642e-17 9.413e-18
6496.46 2.866e-17 1.002e-17
6497.99 1.583e-17 1.015e-17
6499.522 4.84e-17 1.009e-17
6501.054 3.396e-18 9.28e-18
6502.584 2.303e-17 9.081e-18
6504.116 3.373e-17 8.974e-18
6505.647 4.419e-17 8.975e-18
6507.179 3.297e-17 8.496e-18
6508.711 3.17e-17 8.281e-18
6510.242 3.069e-17 8.271e-18
6511.773 2.48e-17 8.144e-18
6513.304 3.421e-17 8.082e-18
6514.836 3.162e-17 8.135e-18
6516.368 2.775e-17 7.954e-18
6517.899 3.33e-17 8.128e-18
6519.431 3.038e-17 8.259e-18
6520.962 3.462e-17 8.46e-18
6522.494 3.145e-17 8.327e-18
6524.025 2.516e-17 8.279e-18
6525.557 2.731e-17 8.033e-18
6527.089 1.809e-17 8.107e-18
6528.62 2.239e-17 8.677e-18
6530.152 4.636e-17 9.389e-18
6531.683 2.194e-17 9.477e-18
6533.216 1.702e-17 9.355e-18
6534.748 2.287e-17 9.026e-18
6536.279 3.171e-17 8.291e-18
6537.811 3.245e-17 8.158e-18
6539.342 1.833e-17 8.15e-18
6540.874 3.813e-17 8.445e-18
6542.407 2.596e-17 8.539e-18
6543.938 2.264e-17 8.529e-18
6545.47 2.747e-17 8.288e-18
6547.002 2.41e-17 7.985e-18
6548.534 2.739e-17 8.393e-18
6550.065 4.737e-17 9.136e-18
6551.598 1.165e-17 9.344e-18
6553.13 2.989e-17 9.485e-18
6554.661 1.472e-17 9.032e-18
6556.194 2.876e-17 8.452e-18
6557.725 3.319e-17 8.257e-18
6559.258 3.726e-17 8.432e-18
6560.79 3.371e-17 8.692e-18
6562.322 2.868e-17 8.675e-18
6563.854 2.644e-17 8.551e-18
6565.386 3.483e-17 8.407e-18
6566.918 2.459e-17 8.296e-18
6568.451 3.664e-17 8.444e-18
6569.982 3.78e-17 8.261e-18
6571.515 3.965e-17 8.172e-18
6573.046 5.053e-17 8.58e-18
6574.579 4.179e-17 8.934e-18
6576.111 4.49e-17 9.083e-18
6577.643 2.054e-17 8.82e-18
6579.176 3.923e-17 8.556e-18
6580.708 2.789e-17 8.039e-18
6582.24 1.879e-17 7.599e-18
6583.772 3.375e-17 7.697e-18
6585.305 3.674e-17 7.641e-18
6586.838 2.47e-17 7.545e-18
6588.369 3.233e-17 7.542e-18
6589.902 4.229e-17 7.702e-18
6591.434 2.411e-17 7.581e-18
6592.967 3.441e-17 7.822e-18
6594.5 2.702e-17 7.903e-18
6596.032 3.513e-17 7.87e-18
6597.565 3.982e-17 7.873e-18
6599.096 3.177e-17 7.99e-18
6600.629 3.411e-17 8.091e-18
6602.161 4.672e-17 8.309e-18
6603.694 3.564e-17 8.317e-18
6605.227 3.239e-17 8.041e-18
6606.759 3.189e-17 7.699e-18
6608.292 3.58e-17 7.533e-18
6609.824 2.505e-17 7.463e-18
6611.357 3.593e-17 7.497e-18
6612.89 3.165e-17 7.577e-18
6614.423 3.614e-17 7.499e-18
6615.956 3.127e-17 7.356e-18
6617.488 3.477e-17 7.491e-18
6619.021 1.959e-17 7.49e-18
6620.553 2.892e-17 7.474e-18
6622.086 2.945e-17 7.685e-18
6623.62 4.072e-17 7.861e-18
6625.152 3.76e-17 7.821e-18
6626.685 2.331e-17 7.721e-18
6628.217 3.781e-17 7.873e-18
6629.751 3.794e-17 7.845e-18
6631.284 4.003e-17 7.948e-18
6632.816 1.862e-17 7.856e-18
6634.349 3.775e-17 7.939e-18
6635.882 4.101e-17 7.853e-18
6637.415 2.971e-17 7.686e-18
6638.949 3.015e-17 7.474e-18
6640.481 3.947e-17 7.624e-18
6642.014 3.896e-17 7.577e-18
6643.547 2.98e-17 7.48e-18
6645.08 3.4e-17 7.529e-18
6646.613 4.212e-17 7.545e-18
6648.146 3.065e-17 7.455e-18
6649.68 3.463e-17 7.545e-18
6651.212 1.761e-17 7.398e-18
6652.746 3.335e-17 7.449e-18
6654.278 4.137e-17 7.604e-18
6655.812 1.54e-17 7.374e-18
6657.345 3.175e-17 7.529e-18
6658.878 2.571e-17 7.509e-18
6660.412 3.354e-17 7.643e-18
6661.944 3.995e-17 7.801e-18
6663.478 3.798e-17 7.747e-18
6665.012 1.815e-17 7.601e-18
6666.544 2.963e-17 7.662e-18
6668.078 2.983e-17 7.664e-18
6669.611 2.719e-17 7.586e-18
6671.145 3.568e-17 7.554e-18
6672.677 3.003e-17 7.533e-18
6674.211 2.501e-17 7.517e-18
6675.745 2.223e-17 7.583e-18
6677.278 3.054e-17 7.586e-18
6678.812 3.2e-17 7.518e-18
6680.344 3.239e-17 7.563e-18
6681.878 2.346e-17 7.506e-18
6683.412 3.214e-17 7.57e-18
6684.945 3.193e-17 7.473e-18
6686.479 3.421e-17 7.502e-18
6688.012 2.395e-17 7.461e-18
6689.546 1.455e-17 7.394e-18
6691.08 3.283e-17 7.482e-18
6692.613 4.645e-17 7.637e-18
6694.147 3.319e-17 7.478e-18
6695.68 3.839e-17 7.576e-18
6697.214 5.461e-17 7.809e-18
6698.747 3.412e-17 7.573e-18
6700.281 4.029e-17 7.684e-18
6701.815 3.86e-17 7.823e-18
6703.348 2.917e-17 7.672e-18
6704.882 4.065e-17 7.807e-18
6706.416 4.512e-17 7.94e-18
6707.95 3.743e-17 7.938e-18
6709.484 2.395e-17 7.778e-18
6711.017 3.078e-17 7.721e-18
6712.551 3.357e-17 7.699e-18
6714.085 2.874e-17 7.681e-18
6715.619 2.907e-17 7.634e-18
6717.153 2.557e-17 7.592e-18
6718.686 4.399e-17 7.677e-18
6720.221 2.409e-17 7.479e-18
6721.754 3.822e-17 7.629e-18
6723.288 3.291e-17 7.432e-18
6724.822 2.653e-17 7.393e-18
6726.356 3.531e-17 7.494e-18
6727.89 3.821e-17 7.517e-18
6729.424 2.496e-17 7.384e-18
6730.958 3.463e-17 7.45e-18
6732.492 2.366e-17 7.313e-18
6734.026 3.295e-17 7.419e-18
6735.561 4.835e-17 7.503e-18
6737.094 4.823e-17 7.538e-18
6738.629 3.244e-17 7.386e-18
6740.162 2.788e-17 7.446e-18
6741.697 1.898e-17 7.244e-18
6743.231 3.556e-17 7.352e-18
6744.765 3.463e-17 7.37e-18
6746.299 4.264e-17 7.45e-18
6747.833 4.097e-17 7.338e-18
6749.368 2.91e-17 7.183e-18
6750.901 1.416e-17 7.073e-18
6752.436 2.137e-17 7.158e-18
6753.971 3.982e-17 7.313e-18
6755.504 2.911e-17 7.226e-18
6757.039 3.832e-17 7.285e-18
6758.573 3.308e-17 7.124e-18
6760.107 4.494e-17 7.338e-18
6761.642 3.38e-17 7.235e-18
6763.176 3.269e-17 7.083e-18
6764.711 3.027e-17 7.175e-18
6766.245 4.267e-17 7.213e-18
6767.779 3.369e-17 7.142e-18
6769.313 3.324e-17 7.129e-18
6770.848 3.47e-17 7.129e-18
6772.383 2.582e-17 6.971e-18
6773.917 1.613e-17 6.881e-18
6775.452 1.523e-17 6.782e-18
6776.986 2.595e-17 6.971e-18
6778.521 3.049e-17 7.007e-18
6780.056 2.659e-17 7.08e-18
6781.59 3.244e-17 6.968e-18
6783.125 3.941e-17 7.079e-18
6784.659 2.969e-17 7.037e-18
6786.194 3.596e-17 7.059e-18
6787.729 2.732e-17 6.9e-18
6789.263 3.218e-17 6.985e-18
6790.798 3.284e-17 6.864e-18
6792.332 3.15e-17 6.959e-18
6793.867 4.06e-17 6.961e-18
6795.401 3.165e-17 6.812e-18
6796.936 3.101e-17 6.822e-18
6798.471 3.556e-17 6.945e-18
6800.006 3.958e-17 6.862e-18
6801.541 3.541e-17 6.956e-18
6803.075 2.571e-17 6.701e-18
6804.61 3.626e-17 6.783e-18
6806.145 3.278e-17 6.775e-18
6807.68 4.073e-17 6.922e-18
6809.215 3.401e-17 6.719e-18
6810.749 2.755e-17 6.704e-18
6812.285 3.753e-17 6.769e-18
6813.82 2.81e-17 6.647e-18
6815.354 2.862e-17 6.718e-18
6816.89 3.194e-17 6.74e-18
6818.424 3.629e-17 6.631e-18
6819.959 2.621e-17 6.611e-18
6821.494 1.787e-17 6.735e-18
6823.029 4.675e-17 7.28e-18
6824.565 2.893e-17 8.116e-18
6826.099 4.982e-17 9.235e-18
6827.634 4.522e-17 9.643e-18
6829.169 4.315e-17 9.97e-18
6830.704 3.806e-17 1.008e-17
6832.24 2.217e-17 9.437e-18
6833.775 3.964e-17 9.266e-18
6835.31 2.791e-17 8.598e-18
6836.845 3.608e-17 7.775e-18
6838.38 3.065e-17 7.401e-18
6839.915 2.055e-17 7.495e-18
6841.45 3.063e-17 7.73e-18
6842.986 3.716e-17 7.449e-18
6844.521 2.589e-17 6.869e-18
6846.056 4.227e-17 6.957e-18
6847.591 2.816e-17 6.742e-18
6849.127 4.087e-17 6.966e-18
6850.662 3.423e-17 7.083e-18
6852.197 4.69e-17 6.89e-18
6853.733 3.881e-17 7e-18
6855.268 4.24e-17 6.838e-18
6856.803 1.929e-17 6.811e-18
6858.339 1.773e-17 7.682e-18
6859.874 3.176e-17 9.823e-18
6861.41 3.636e-17 1.096e-17
6862.945 2.954e-17 1.148e-17
6864.481 4.684e-17 1.163e-17
6866.015 1.866e-17 1.03e-17
6867.551 2.902e-17 1.034e-17
6869.087 3.797e-17 1.098e-17
6870.622 1.65e-17 1.093e-17
6872.158 2.99e-17 1.01e-17
6873.693 1.151e-17 9.361e-18
6875.229 3.188e-17 8.842e-18
6876.765 4.667e-17 8.863e-18
6878.3 3.567e-17 8.624e-18
6879.836 1.825e-17 8.422e-18
6881.371 2.492e-17 8.309e-18
6882.907 1.569e-17 7.98e-18
6884.442 3.018e-17 7.736e-18
6885.978 1.04e-17 8.592e-18
6887.514 2.451e-17 9.085e-18
6889.05 3.713e-17 9.301e-18
6890.586 1.435e-17 9.01e-18
6892.121 1.748e-17 8.389e-18
6893.657 3.55e-17 8.314e-18
6895.193 2.632e-17 8.05e-18
6896.728 2.892e-17 8.458e-18
6898.265 2.943e-17 8.505e-18
6899.8 2.468e-17 8.764e-18
6901.336 3.369e-17 9.094e-18
6902.872 3.95e-17 8.072e-18
6904.408 3.347e-17 7.422e-18
6905.944 3.869e-17 7.822e-18
6907.479 4.48e-17 8.096e-18
6909.015 3.123e-17 8.426e-18
6910.551 2.862e-17 9.388e-18
6912.087 2.451e-17 8.765e-18
6913.623 3.21e-17 8.828e-18
6915.159 2.923e-17 8.065e-18
6916.695 3.719e-17 7.544e-18
6918.231 5.264e-17 8.578e-18
6919.767 5.413e-17 9.915e-18
6921.304 3.896e-17 1.053e-17
6922.839 3.484e-17 1.002e-17
6924.375 1.847e-17 9.466e-18
6925.911 3.322e-17 8.263e-18
6927.447 3.455e-17 7.686e-18
6928.984 3.728e-17 7.278e-18
6930.52 1.619e-17 7.284e-18
6932.056 3.49e-17 7.164e-18
6933.592 3.357e-17 7.326e-18
6935.128 2.731e-17 8.073e-18
6936.664 5.128e-17 8.469e-18
6938.2 1.197e-17 8.581e-18
6939.737 2.684e-17 8.756e-18
6941.273 4.154e-17 8.283e-18
6942.809 2.986e-17 7.758e-18
6944.345 4.537e-17 8.598e-18
6945.882 2.255e-17 9.672e-18
6947.418 2.041e-17 1.027e-17
6948.954 4.799e-17 1.028e-17
6950.491 3.683e-17 9.675e-18
6952.027 3.166e-17 8.378e-18
6953.563 2.449e-17 7.479e-18
6955.099 2.792e-17 7.391e-18
6956.636 3.149e-17 7.739e-18
6958.173 3.587e-17 7.495e-18
6959.709 3.464e-17 7.221e-18
6961.245 2.907e-17 7.682e-18
6962.781 2.27e-17 7.36e-18
6964.318 2.835e-17 7.623e-18
6965.855 4.818e-17 8.268e-18
6967.391 2.899e-17 8.399e-18
6968.928 3.593e-17 8.057e-18
6970.464 1.413e-17 8.279e-18
6972.001 1.684e-17 8.07e-18
6973.538 4.154e-17 8.621e-18
6975.074 3.085e-17 8.689e-18
6976.611 1.318e-17 9.057e-18
6978.147 3.724e-17 9.189e-18
6979.684 1.799e-17 8.661e-18
6981.22 2.96e-17 7.83e-18
6982.757 4.186e-17 7.478e-18
6984.294 3.729e-17 7.678e-18
6985.83 3.143e-17 7.488e-18
6987.367 2.843e-17 7.303e-18
6988.903 3.395e-17 7.486e-18
6990.44 2.649e-17 7.421e-18
6991.978 3.061e-17 7.445e-18
6993.514 1.781e-17 7.144e-18
6995.051 4.161e-17 7.486e-18
6996.587 2.957e-17 7.426e-18
6998.124 2.798e-17 7.48e-18
6999.661 2.896e-17 7.459e-18
7001.198 2.39e-17 7.766e-18
7002.735 3.369e-17 7.434e-18
7004.271 3.46e-17 7.529e-18
7005.809 4.361e-17 7.822e-18
7007.345 3.629e-17 8.044e-18
7008.882 2.986e-17 7.74e-18
7010.42 3.08e-17 7.922e-18
7011.956 3.719e-17 8.287e-18
7013.493 3.548e-17 7.8e-18
7015.03 3.029e-17 7.379e-18
7016.567 1.894e-17 7.171e-18
7018.104 2.1e-17 7.096e-18
7019.641 2.187e-17 7.103e-18
7021.178 3.953e-17 6.928e-18
7022.715 3.673e-17 7.293e-18
7024.252 4.983e-17 7.301e-18
7025.789 2.707e-17 7.144e-18
7027.326 2.236e-17 7.214e-18
7028.864 2.25e-17 7.019e-18
7030.4 2.539e-17 7.312e-18
7031.938 2.521e-17 7.044e-18
7033.474 2.006e-17 7.088e-18
7035.012 2.672e-17 6.899e-18
7036.549 2.183e-17 7.3e-18
7038.086 3.103e-17 7.446e-18
7039.624 3.807e-17 7.324e-18
7041.16 2.593e-17 7.148e-18
7042.698 1.84e-17 7.358e-18
7044.235 3.813e-17 7.728e-18
7045.772 1.772e-17 7.666e-18
7047.31 2.332e-17 7.449e-18
7048.847 3.257e-17 7.626e-18
7050.384 2.519e-17 7.576e-18
7051.921 3.403e-17 7.557e-18
7053.459 3.387e-17 7.158e-18
7054.997 2.346e-17 7.094e-18
7056.533 3.994e-17 7.092e-18
7058.071 2.99e-17 7.057e-18
7059.608 1.059e-17 6.893e-18
7061.146 4.532e-17 7.222e-18
7062.683 3.733e-17 7.263e-18
7064.22 3.183e-17 7.197e-18
7065.758 3.353e-17 7.442e-18
7067.295 3.18e-17 7.14e-18
7068.833 3.124e-17 6.934e-18
7070.37 2.022e-17 6.964e-18
7071.908 3.255e-17 7.155e-18
7073.446 1.886e-17 6.594e-18
7074.983 2.177e-17 6.893e-18
7076.521 3.669e-17 6.937e-18
7078.058 3.239e-17 7.369e-18
7079.596 2.838e-17 7.323e-18
7081.134 2.196e-17 7.011e-18
7082.671 3.289e-17 7.091e-18
7084.209 3.666e-17 7.2e-18
7085.746 2.478e-17 6.978e-18
7087.284 2.948e-17 7.214e-18
7088.821 2.961e-17 7.245e-18
7090.359 4.326e-17 7.069e-18
7091.897 2.725e-17 7.064e-18
7093.434 2.37e-17 6.711e-18
7094.972 1.68e-17 6.547e-18
7096.509 3.212e-17 6.662e-18
7098.048 1.876e-17 6.874e-18
7099.586 2.359e-17 6.443e-18
7101.123 3.406e-17 6.444e-18
7102.661 1.935e-17 6.327e-18
7104.198 1.887e-17 6.689e-18
7105.737 2.235e-17 6.539e-18
7107.274 2.269e-17 6.653e-18
7108.812 3.672e-17 6.661e-18
7110.35 3.155e-17 6.539e-18
7111.888 2.217e-17 6.531e-18
7113.426 2.014e-17 6.36e-18
7114.963 1.973e-17 6.567e-18
7116.502 2.899e-17 6.436e-18
7118.04 2.924e-17 6.714e-18
7119.577 2.54e-17 6.411e-18
7121.116 2.005e-17 6.584e-18
7122.653 4.279e-17 6.593e-18
7124.192 2.751e-17 6.728e-18
7125.73 2.433e-17 6.668e-18
7127.267 2.732e-17 6.9e-18
7128.806 3.243e-17 6.677e-18
7130.343 3.152e-17 6.729e-18
7131.882 2.615e-17 6.63e-18
7133.419 2.346e-17 6.693e-18
7134.958 2.882e-17 6.589e-18
7136.496 4.751e-17 6.903e-18
7138.034 1.841e-17 6.633e-18
7139.572 1.901e-17 6.661e-18
7141.11 3.21e-17 7.018e-18
7142.649 2.616e-17 7.017e-18
7144.187 3.84e-17 7.103e-18
7145.725 2.349e-17 6.682e-18
7147.263 2.022e-17 6.495e-18
7148.801 3.557e-17 6.977e-18
7150.34 3.389e-17 6.763e-18
7151.877 2.084e-17 6.545e-18
7153.416 2.548e-17 6.55e-18
7154.955 2.36e-17 6.616e-18
7156.492 2.555e-17 6.787e-18
7158.031 2.715e-17 6.941e-18
7159.569 1.902e-17 6.963e-18
7161.107 2.343e-17 7.088e-18
7162.646 3.01e-17 6.965e-18
7164.184 2.696e-17 6.956e-18
7165.723 2.137e-17 7.01e-18
7167.261 3.179e-17 7.022e-18
7168.799 2.808e-17 6.913e-18
7170.337 2.934e-17 7.011e-18
7171.876 2.092e-17 6.747e-18
7173.415 2.644e-17 7.021e-18
7174.953 1.437e-17 7.345e-18
7176.492 3.945e-17 7.495e-18
7178.029 2.534e-17 7.113e-18
7179.568 2.181e-17 7.213e-18
7181.107 1.227e-17 7.205e-18
7182.645 2.285e-17 7.297e-18
7184.184 1.982e-17 7.163e-18
7185.722 2.628e-17 7.36e-18
7187.261 2.299e-17 7.283e-18
7188.8 2.077e-17 7.228e-18
7190.338 3.568e-17 7.055e-18
7191.877 3.404e-17 7.195e-18
7193.415 2.036e-17 7.168e-18
7194.954 2.408e-17 6.875e-18
7196.492 4.551e-17 6.93e-18
7198.031 1.495e-17 7.262e-18
7199.57 2.868e-17 7.169e-18
7201.108 1.12e-17 7.21e-18
7202.648 1.695e-17 7.408e-18
7204.186 1.999e-17 7.222e-18
7205.725 2.842e-17 7.014e-18
7207.264 2.043e-17 6.967e-18
7208.802 2.525e-17 7.009e-18
7210.341 3.111e-17 7.053e-18
7211.88 1.076e-17 6.702e-18
7213.419 2.553e-17 6.789e-18
7214.957 1.76e-17 6.411e-18
7216.496 2.296e-17 6.763e-18
7218.035 2.963e-17 6.953e-18
7219.574 3.341e-17 7.022e-18
7221.113 2.529e-17 7.183e-18
7222.651 1.263e-17 7.287e-18
7224.191 3.565e-17 7.028e-18
7225.73 1.396e-17 6.977e-18
7227.268 1.759e-17 7.112e-18
7228.807 1.98e-17 6.966e-18
7230.346 2.041e-17 7.312e-18
7231.885 2.077e-17 7.428e-18
7233.424 2.401e-17 8.134e-18
7234.963 1.94e-17 1.039e-17
7236.502 1.69e-18 1.173e-17
7238.041 2.109e-17 1.324e-17
7239.58 3.236e-18 1.392e-17
7241.119 3.07e-17 1.499e-17
7242.658 2.222e-17 1.496e-17
7244.198 1.856e-17 1.373e-17
7245.736 6.243e-18 1.255e-17
7247.276 2.704e-18 9.995e-18
7248.814 1.51e-17 9.51e-18
7250.354 1.132e-17 8.972e-18
7251.893 4.249e-17 9.039e-18
7253.432 2.722e-17 9.025e-18
7254.971 1.302e-17 8.279e-18
7256.51 2.616e-17 7.504e-18
7258.049 2.194e-17 7.215e-18
7259.588 2.011e-17 7.276e-18
7261.128 3.029e-17 7.145e-18
7262.667 3.298e-17 7.636e-18
7264.206 3.319e-17 7.717e-18
7265.746 2.327e-17 7.61e-18
7267.284 2.146e-17 7.5e-18
7268.824 2.399e-17 7.562e-18
7270.364 2.126e-17 8.96e-18
7271.902 1.158e-17 1.207e-17
7273.442 3.361e-17 1.47e-17
7274.981 2.747e-17 1.521e-17
7276.52 3.358e-17 1.556e-17
7278.059 2.443e-17 1.263e-17
7279.599 1.387e-17 1.073e-17
7281.139 4.032e-17 1.039e-17
7282.678 3.819e-17 1.095e-17
7284.217 3.027e-17 1.037e-17
7285.756 4.997e-17 9.939e-18
7287.296 2.25e-17 8.633e-18
7288.836 3.096e-17 7.763e-18
7290.375 2.966e-17 7.562e-18
7291.915 2.831e-17 8.103e-18
7293.453 2.13e-17 8.372e-18
7294.993 2.923e-17 8.286e-18
7296.532 8.374e-18 7.897e-18
7298.072 2.95e-17 8.112e-18
7299.612 2.859e-17 8.425e-18
7301.151 2.989e-17 9.336e-18
7302.691 3.591e-17 9.305e-18
7304.23 1.522e-17 9.075e-18
7305.77 2.518e-17 8.215e-18
7307.31 2.784e-17 7.873e-18
7308.849 2.291e-17 7.305e-18
7310.389 2.48e-17 7.855e-18
7311.928 4.587e-17 1.114e-17
7313.468 1.52e-17 1.315e-17
7315.007 9.692e-18 1.328e-17
7316.547 3.018e-17 1.268e-17
7318.087 2.647e-17 1.071e-17
7319.626 2.186e-17 8.29e-18
7321.167 2.606e-17 7.242e-18
7322.706 2.761e-17 6.993e-18
7324.246 4.298e-17 7.896e-18
7325.786 2.729e-17 9.079e-18
7327.325 4.421e-17 9.872e-18
7328.865 1.251e-17 9.447e-18
7330.405 3.475e-17 9.066e-18
7331.945 1.971e-17 7.716e-18
7333.485 2.199e-17 7.027e-18
7335.024 2.57e-17 7.53e-18
7336.564 2.598e-17 1.088e-17
7338.104 2.97e-17 1.322e-17
7339.644 2.847e-17 1.347e-17
7341.183 4.3e-17 1.302e-17
7342.724 2.184e-17 1.057e-17
7344.264 2.366e-17 8.316e-18
7345.803 2.266e-17 7.427e-18
7347.343 2.256e-17 6.543e-18
7348.883 2.092e-17 6.667e-18
7350.423 3.1e-17 6.862e-18
7351.964 2.16e-17 6.895e-18
7353.503 9.767e-18 7.491e-18
7355.043 1.609e-17 8.421e-18
7356.583 1.985e-17 8.715e-18
7358.123 2.174e-17 9.353e-18
7359.663 2.693e-17 8.74e-18
7361.203 2.093e-17 7.657e-18
7362.743 2.777e-17 7.251e-18
7364.283 1.765e-17 8.473e-18
7365.823 1.638e-17 1.072e-17
7367.363 3.227e-17 1.176e-17
7368.903 2.836e-17 1.176e-17
7370.444 4.275e-17 1.099e-17
7371.983 1.183e-17 8.355e-18
7373.524 3.546e-17 7.321e-18
7375.063 2.58e-17 6.453e-18
7376.604 1.258e-17 5.989e-18
7378.144 3.469e-17 6.223e-18
7379.684 2.35e-17 6.366e-18
7381.225 2e-17 5.992e-18
7382.764 2.125e-17 5.951e-18
7384.305 2.25e-17 6.15e-18
7385.845 2.373e-17 6.338e-18
7387.385 1.318e-17 6.897e-18
7388.926 2.483e-17 8.148e-18
7390.466 1.551e-17 7.695e-18
7392.006 3.797e-17 7.888e-18
7393.546 3.285e-17 7.651e-18
7395.087 2.777e-17 7.174e-18
7396.626 2.67e-17 7.242e-18
7398.167 1.668e-17 8.95e-18
7399.708 1.929e-17 9.608e-18
7401.248 1.208e-17 9.598e-18
7402.788 1.949e-17 8.996e-18
7404.328 1.451e-17 7.581e-18
7405.869 2.843e-17 6.725e-18
7407.41 2.826e-17 6.416e-18
7408.95 1.795e-17 5.953e-18
7410.491 3.404e-17 6.103e-18
7412.03 1.286e-17 5.946e-18
7413.571 1.586e-17 6.011e-18
7415.112 3e-17 6.124e-18
7416.652 2.225e-17 5.984e-18
7418.193 1.854e-17 5.968e-18
7419.733 1.788e-17 5.975e-18
7421.274 1.821e-17 5.952e-18
7422.814 1.839e-17 5.942e-18
7424.355 2.85e-17 6.276e-18
7425.895 3.253e-17 6.763e-18
7427.435 7.101e-18 6.828e-18
7428.976 3.278e-17 7.104e-18
7430.516 2.881e-17 6.957e-18
7432.057 2.364e-17 6.657e-18
7433.598 3.078e-17 6.94e-18
7435.138 1.629e-17 7.55e-18
7436.679 1.664e-17 7.978e-18
7438.219 3.03e-17 8.127e-18
7439.761 3.469e-17 7.645e-18
7441.301 1.952e-17 6.739e-18
7442.842 2.12e-17 6.247e-18
7444.383 1.547e-17 6.09e-18
7445.923 2.279e-17 6.039e-18
7447.464 1.541e-17 6.033e-18
7449.004 2.113e-17 6.077e-18
7450.545 2.546e-17 6.107e-18
7452.086 3.018e-17 6.25e-18
7453.627 2.302e-17 6.134e-18
7455.168 1.825e-17 6.167e-18
7456.708 3.104e-17 6.301e-18
7458.249 1.115e-17 6.469e-18
7459.789 2.185e-17 6.671e-18
7461.331 2.135e-17 6.851e-18
7462.872 2.387e-17 7.31e-18
7464.412 2.017e-17 7.249e-18
7465.953 2.295e-17 7.507e-18
7467.493 2.698e-17 7.749e-18
7469.035 2.654e-17 8.074e-18
7470.576 2.757e-17 8.446e-18
7472.116 2.789e-17 8.557e-18
7473.658 2.39e-17 8.276e-18
7475.198 3.703e-17 8.262e-18
7476.739 3.341e-17 8.236e-18
7478.28 3.556e-17 8.5e-18
7479.821 1.844e-17 9.158e-18
7481.362 2.428e-17 9.136e-18
7482.903 4.996e-17 8.858e-18
7484.444 1.406e-17 8.158e-18
7485.985 1.829e-17 7.269e-18
7487.526 2.385e-17 6.807e-18
7489.067 4.047e-17 6.917e-18
7490.608 2.133e-17 6.976e-18
7492.149 2.262e-17 7.064e-18
7493.69 2.369e-17 7.048e-18
7495.231 1.591e-17 6.841e-18
7496.772 1.995e-17 6.628e-18
7498.313 2.124e-17 6.609e-18
7499.855 9.957e-18 6.523e-18
7501.395 2.051e-17 6.573e-18
7502.937 4.5e-17 6.645e-18
7504.477 3.109e-17 6.602e-18
7506.019 1.655e-17 6.436e-18
7507.56 1.578e-17 6.394e-18
7509.101 3.396e-17 6.545e-18
7510.643 2.357e-17 6.549e-18
7512.183 3.872e-17 6.737e-18
7513.725 2.75e-17 6.84e-18
7515.265 1.988e-17 6.867e-18
7516.807 3.493e-17 7.195e-18
7518.349 1.481e-17 7.98e-18
7519.889 2.136e-17 1.018e-17
7521.431 1.845e-17 1.145e-17
7522.972 2.6e-17 1.184e-17
7524.513 1.528e-17 1.143e-17
7526.055 1.359e-17 1.003e-17
7527.596 1.127e-17 9.048e-18
7529.137 1.825e-17 8.586e-18
7530.678 2.472e-17 8.455e-18
7532.22 3.404e-17 7.876e-18
7533.761 2.342e-17 7.201e-18
7535.302 2.939e-17 6.974e-18
7536.844 3.56e-17 7.129e-18
7538.385 2.451e-17 7.114e-18
7539.927 2.91e-17 7.129e-18
7541.468 2.521e-17 7.012e-18
7543.009 3.092e-17 6.887e-18
7544.551 3.194e-17 6.741e-18
7546.092 3.574e-17 6.706e-18
7547.634 2.608e-17 6.668e-18
7549.175 2.183e-17 6.665e-18
7550.717 1.858e-17 6.755e-18
7552.258 2.651e-17 7.09e-18
7553.799 2.407e-17 7.536e-18
7555.341 2.249e-17 7.848e-18
7556.882 2.714e-17 7.976e-18
7558.424 2.277e-17 7.868e-18
7559.965 2.024e-17 7.602e-18
7561.507 1.939e-17 7.096e-18
7563.049 2.921e-17 6.947e-18
7564.59 2.703e-17 7.045e-18
7566.132 1.569e-17 7.736e-18
7567.673 2.93e-17 9.67e-18
7569.215 3.716e-17 1.084e-17
7570.757 2.015e-17 1.102e-17
7572.298 2.126e-17 1.049e-17
7573.84 2.387e-17 9.115e-18
7575.381 2.721e-17 8.246e-18
7576.923 1.877e-17 6.929e-18
7578.464 3.656e-17 6.84e-18
7580.006 1.496e-17 6.693e-18
7581.548 2.401e-17 8.088e-18
7583.089 1.951e-17 8.133e-18
7584.632 1.262e-17 8.308e-18
7586.173 2.066e-17 8.494e-18
7587.715 3.585e-17 8.154e-18
7589.257 2.855e-17 7.386e-18
7590.798 3.159e-17 7.622e-18
7592.34 2.623e-17 7.946e-18
7593.881 1.252e-18 1.041e-17
7595.424 3.08e-17 1.474e-17
7596.965 3.489e-17 1.862e-17
7598.507 2.295e-17 2.266e-17
7600.049 1.937e-17 2.324e-17
7601.59 6.385e-17 2.481e-17
7603.133 3.73e-17 2.891e-17
7604.674 1.691e-17 2.757e-17
7606.216 -2.935e-17 2.535e-17
7607.758 4.95e-17 2.624e-17
7609.3 7.608e-18 2.283e-17
7610.842 4.23e-17 1.906e-17
7612.383 1.781e-17 1.641e-17
7613.926 2.371e-17 1.583e-17
7615.467 3.37e-17 1.253e-17
7617.009 8.746e-18 1.033e-17
7618.552 2.098e-17 9.767e-18
7620.093 2.542e-17 9.503e-18
7621.635 3.18e-17 1.123e-17
7623.177 2.88e-17 1.224e-17
7624.719 3.744e-17 1.437e-17
7626.261 4.819e-17 1.59e-17
7627.803 5.335e-18 1.559e-17
7629.345 3.345e-17 1.579e-17
7630.887 3.588e-17 1.4e-17
7632.429 3.072e-18 1.276e-17
7633.971 3.086e-17 1.249e-17
7635.513 1.901e-17 1.131e-17
7637.056 2.513e-17 1.116e-17
7638.597 3.68e-17 1.115e-17
7640.139 4.768e-17 1.112e-17
7641.681 2.552e-17 1.066e-17
7643.223 3.855e-17 9.981e-18
7644.766 3.169e-17 1.039e-17
7646.308 3.392e-17 1.006e-17
7647.85 1.551e-17 9.331e-18
7649.392 3.672e-17 9.79e-18
7650.934 1.616e-17 9.404e-18
7652.476 3.224e-17 9.339e-18
7654.018 1.228e-17 8.713e-18
7655.561 1.941e-17 8.613e-18
7657.103 1.914e-17 8.285e-18
7658.645 2.356e-17 8.711e-18
7660.187 2.965e-17 9.908e-18
7661.729 2.071e-17 9.35e-18
7663.272 3.804e-17 9.012e-18
7664.814 1.655e-17 7.799e-18
7666.356 2.5e-17 7.369e-18
7667.898 3.153e-17 7.172e-18
7669.441 1.841e-17 7.118e-18
7670.982 3.353e-17 7.307e-18
7672.525 2.668e-17 6.987e-18
7674.068 2.639e-17 6.782e-18
7675.609 1.444e-17 6.781e-18
7677.152 3.262e-17 6.761e-18
7678.694 2.391e-17 6.861e-18
7680.237 1.885e-17 6.881e-18
7681.779 2.48e-17 6.52e-18
7683.321 2.097e-17 7.119e-18
7684.864 3.496e-17 7.162e-18
7686.406 2.861e-17 7.254e-18
7687.949 7.01e-18 7.033e-18
7689.49 2.167e-17 7.194e-18
7691.033 3.451e-17 7.141e-18
7692.576 2.247e-17 7.264e-18
7694.118 3.524e-17 7.282e-18
7695.661 3.267e-17 7.476e-18
7697.203 8.675e-18 7.357e-18
7698.745 2.731e-17 7.755e-18
7700.288 1.394e-17 7.379e-18
7701.83 2.154e-17 6.836e-18
7703.373 3.439e-17 6.98e-18
7704.915 3.412e-17 6.522e-18
7706.458 1.695e-17 6.978e-18
7708.0 1.948e-17 9.988e-18
7709.543 4.72e-18 1.204e-17
7711.086 2.057e-17 1.26e-17
7712.628 5.037e-17 1.428e-17
7714.171 8.789e-18 1.523e-17
7715.713 1.28e-18 1.445e-17
7717.256 3.918e-17 1.284e-17
7718.799 1.573e-17 1.071e-17
7720.341 5.413e-18 9.359e-18
7721.884 1.499e-17 8.844e-18
7723.426 1.767e-17 8.839e-18
7724.969 2.864e-17 9.039e-18
7726.511 3.036e-17 8.382e-18
7728.054 2.554e-17 7.472e-18
7729.597 2.053e-17 6.748e-18
7731.139 1.611e-17 6.866e-18
7732.682 4.15e-17 6.988e-18
7734.224 1.32e-17 7.13e-18
7735.767 2.924e-17 7.002e-18
7737.31 1.503e-17 7.057e-18
7738.853 1.254e-17 6.57e-18
7740.396 2.528e-17 6.797e-18
7741.938 5.845e-18 6.573e-18
7743.481 1.486e-17 6.879e-18
7745.023 8.302e-18 8.897e-18
7746.566 3.448e-17 1.276e-17
7748.109 1.791e-17 1.432e-17
7749.652 2.991e-18 1.478e-17
7751.195 3.102e-17 1.391e-17
7752.737 2.668e-17 1.129e-17
7754.28 2.802e-17 9.146e-18
7755.823 6.581e-18 9.126e-18
7757.366 3.351e-17 9.865e-18
7758.909 4.545e-17 1.022e-17
7760.451 1.627e-17 9.666e-18
7761.994 1.43e-17 8.269e-18
7763.537 2.667e-17 7.222e-18
7765.08 2.794e-17 6.63e-18
7766.623 2.252e-17 6.451e-18
7768.166 2.748e-17 6.805e-18
7769.709 1.622e-17 7.273e-18
7771.251 2.635e-17 7.789e-18
7772.795 2.508e-17 7.924e-18
7774.338 2.009e-17 7.786e-18
7775.88 2.218e-17 8.087e-18
7777.424 3.016e-17 8.58e-18
7778.966 3.148e-17 8.874e-18
7780.509 -4.568e-18 8.625e-18
7782.052 2.006e-17 8.115e-18
7783.595 1.586e-17 7.36e-18
7785.139 2.019e-17 6.984e-18
7786.681 3.451e-17 7.248e-18
7788.224 2.595e-17 8.226e-18
7789.767 1.964e-17 1.084e-17
7791.31 2.02e-17 1.289e-17
7792.854 -4.898e-18 1.327e-17
7794.396 1.633e-17 1.284e-17
7795.94 3.076e-18 1.077e-17
7797.482 2.198e-17 8.466e-18
7799.026 1.554e-17 7.133e-18
7800.568 2.617e-17 6.697e-18
7802.112 1.946e-17 6.77e-18
7803.655 2.189e-17 7.861e-18
7805.198 1.923e-17 9.325e-18
7806.741 8.207e-18 9.808e-18
7808.284 1.553e-17 9.87e-18
7809.827 1.982e-17 9.22e-18
7811.371 2.655e-17 8.157e-18
7812.913 1.964e-17 7.408e-18
7814.457 2.459e-17 7.297e-18
7815.999 6.803e-18 8.871e-18
7817.543 1.515e-17 1.219e-17
7819.086 3.67e-17 1.419e-17
7820.629 1.549e-17 1.453e-17
7822.173 2.982e-17 1.374e-17
7823.716 -9.615e-19 1.1e-17
7825.259 1.399e-17 8.695e-18
7826.802 2.024e-17 7.485e-18
7828.345 2.88e-17 7.032e-18
7829.889 2.393e-17 6.99e-18
7831.432 2.409e-17 6.991e-18
7832.976 9.129e-18 6.725e-18
7834.518 3.101e-17 7.101e-18
7836.062 2.036e-17 7.588e-18
7837.605 6.251e-18 8.844e-18
7839.148 2.22e-17 9.653e-18
7840.692 3.056e-17 9.895e-18
7842.235 2.869e-17 9.329e-18
7843.779 8.339e-18 8.223e-18
7845.321 1.033e-17 7.88e-18
7846.865 5.438e-18 8.499e-18
7848.409 3.059e-17 1.112e-17
7849.952 1.957e-17 1.383e-17
7851.495 2.581e-17 1.525e-17
7853.038 4.269e-17 1.501e-17
7854.582 -6.611e-18 1.475e-17
7856.125 7.362e-18 1.233e-17
7857.669 2.356e-17 1.146e-17
7859.212 2.797e-17 1.156e-17
7860.755 3.923e-17 1.111e-17
7862.299 4.029e-17 9.771e-18
7863.842 1.711e-17 9.153e-18
7865.386 2.139e-17 1.004e-17
7866.93 1.304e-17 1.147e-17
7868.473 3.182e-17 1.214e-17
7870.017 5.096e-18 1.182e-17
7871.559 1.761e-17 1.051e-17
7873.103 2.769e-17 9.923e-18
7874.646 1.255e-17 8.98e-18
7876.19 3.458e-17 9.864e-18
7877.734 8.837e-18 1.015e-17
7879.277 8.052e-20 1.076e-17
7880.821 2.409e-17 1.003e-17
7882.364 8.315e-18 9.576e-18
7883.908 2.988e-17 9.594e-18
7885.452 2.808e-17 1.045e-17
7886.995 8.571e-19 1.14e-17
7888.539 1.27e-18 1.23e-17
7890.082 1.708e-17 1.117e-17
7891.626 4.011e-17 1.038e-17
7893.169 1.25e-17 9.571e-18
7894.713 3.152e-17 8.075e-18
7896.257 3.107e-18 7.088e-18
7897.8 2.837e-17 7.538e-18
7899.344 7.154e-18 7.123e-18
7900.887 2.987e-17 7.189e-18
7902.431 1.637e-17 7.284e-18
7903.975 2.893e-17 7.424e-18
7905.518 2.968e-17 7.464e-18
7907.062 1.131e-17 8.486e-18
7908.606 4.233e-17 1.207e-17
7910.15 3.235e-17 1.569e-17
7911.693 1.106e-17 1.799e-17
7913.237 -1.373e-18 1.825e-17
7914.781 4.23e-17 1.594e-17
7916.324 1.545e-17 1.463e-17
7917.868 -4.409e-18 1.302e-17
7919.412 -8.609e-18 1.219e-17
7920.956 1.091e-17 1.251e-17
7922.5 1.711e-17 1.116e-17
7924.043 2.58e-17 9.216e-18
7925.587 1.476e-17 8.545e-18
7927.13 1.5e-17 9.701e-18
7928.675 2.455e-17 1.058e-17
7930.218 1.275e-17 1.124e-17
7931.762 2.937e-17 1.108e-17
7933.306 1.345e-17 9.296e-18
7934.85 3.543e-17 8.127e-18
7936.394 2.133e-17 7.485e-18
7937.937 1.347e-17 6.977e-18
7939.481 2.753e-17 7.654e-18
7941.026 4.113e-17 7.546e-18
7942.569 2.608e-17 7.389e-18
7944.113 2.827e-17 8.721e-18
7945.656 2.531e-17 9.36e-18
7947.201 1.466e-17 1.007e-17
7948.744 6.605e-18 1.049e-17
7950.288 2.12e-17 9.594e-18
7951.833 2.103e-17 8.492e-18
7953.376 2.602e-17 7.328e-18
7954.92 3.439e-17 7.418e-18
7956.464 3.011e-17 6.798e-18
7958.008 2.21e-17 7.369e-18
7959.553 1.762e-17 1.002e-17
7961.096 1.04e-17 1.342e-17
7962.64 -7.468e-18 1.556e-17
7964.184 6.99e-17 1.601e-17
7965.728 2.995e-17 1.46e-17
7967.271 1.454e-17 1.152e-17
7968.816 2.726e-17 8.981e-18
7970.36 3.213e-17 7.594e-18
7971.904 2.421e-17 7.93e-18
7973.448 8.359e-18 8.176e-18
7974.992 1.863e-17 9.702e-18
7976.536 2.156e-17 1.07e-17
7978.081 2.633e-17 1.15e-17
7979.624 3.242e-17 1.029e-17
7981.169 4.088e-17 1.008e-17
7982.712 8.934e-18 8.04e-18
7984.257 1.617e-17 7.54e-18
7985.8 2.763e-17 7.688e-18
7987.345 8.339e-18 8.39e-18
7988.889 9.177e-18 1.18e-17
7990.433 -4.398e-18 1.556e-17
7991.977 2.621e-17 1.609e-17
7993.521 2.663e-17 1.525e-17
7995.065 -8.676e-18 1.379e-17
7996.61 1.55e-17 9.824e-18
7998.153 1.026e-17 7.957e-18
7999.698 1.318e-17 7.389e-18
8001.241 1.405e-17 7.291e-18
8002.786 3.087e-17 6.892e-18
8004.33 2.572e-17 6.682e-18
8005.874 1.026e-17 6.773e-18
8007.419 3.827e-17 7.099e-18
8008.962 8.129e-18 8.067e-18
8010.507 8.578e-18 9.237e-18
8012.051 3.527e-17 1.008e-17
8013.595 6.07e-18 9.939e-18
8015.14 2.071e-17 9.641e-18
8016.684 2.029e-17 8.83e-18
8018.228 7.373e-18 7.857e-18
8019.772 2.355e-17 8.67e-18
8021.317 1.723e-17 1.06e-17
8022.86 9.391e-18 1.307e-17
8024.405 3.94e-17 1.348e-17
8025.95 5.441e-18 1.38e-17
8027.493 1.756e-17 1.188e-17
8029.038 2.129e-17 9.375e-18
8030.582 3.255e-17 7.765e-18
8032.127 7.596e-18 7.271e-18
8033.671 5.28e-18 6.785e-18
8035.215 2.29e-17 6.815e-18
8036.76 7.48e-18 6.338e-18
8038.304 9.952e-18 6.366e-18
8039.848 2.456e-17 6.663e-18
8041.392 1.44e-17 6.361e-18
8042.937 1.423e-17 6.317e-18
8044.482 2.126e-17 6.558e-18
8046.026 1.628e-17 7.04e-18
8047.57 1.817e-17 7.622e-18
8049.114 3.378e-17 8.583e-18
8050.659 2.462e-17 8.693e-18
8052.204 2.065e-18 8.129e-18
8053.748 1.031e-17 7.829e-18
8055.292 1.666e-17 7.077e-18
8056.836 2.699e-17 7.772e-18
8058.381 2.766e-17 9.309e-18
8059.925 1.657e-17 1.008e-17
8061.47 2.112e-17 1.071e-17
8063.015 4.268e-17 1.003e-17
8064.559 3.024e-17 8.498e-18
8066.104 2.814e-17 7.365e-18
8067.647 1.998e-17 6.573e-18
8069.192 1.747e-17 6.266e-18
8070.737 2.138e-17 6.601e-18
8072.281 3.045e-17 6.627e-18
8073.826 2.94e-17 6.634e-18
8075.37 1.509e-17 6.694e-18
8076.915 1.007e-17 6.488e-18
8078.459 7.654e-18 6.337e-18
8080.004 1.474e-17 6.535e-18
8081.549 3.399e-17 6.896e-18
8083.093 5.77e-18 6.285e-18
8084.638 3.034e-18 6.619e-18
8086.182 1.556e-17 6.3e-18
8087.727 5.164e-18 6.322e-18
8089.272 7.385e-18 6.802e-18
8090.816 3.52e-17 7.39e-18
8092.361 2.292e-17 7.521e-18
8093.905 1.705e-17 7.205e-18
8095.45 1.243e-17 7.058e-18
8096.994 3.485e-18 7.011e-18
8098.539 1.47e-17 7.479e-18
8100.084 1.008e-17 8.117e-18
8101.628 1.411e-17 8.045e-18
8103.173 2.233e-17 8.169e-18
8104.717 2.988e-17 7.307e-18
8106.262 2.337e-17 7.102e-18
8107.807 1.71e-17 6.538e-18
8109.351 1.458e-17 6.483e-18
8110.896 3.419e-17 6.328e-18
8112.44 1.402e-17 6.813e-18
8113.986 1.731e-17 6.47e-18
8115.53 2.768e-17 6.423e-18
8117.075 1.001e-17 6.182e-18
8118.62 1.909e-17 6.184e-18
8120.164 2.021e-17 6.309e-18
8121.709 1.52e-17 6.497e-18
8123.253 2.826e-17 6.429e-18
8124.798 2.051e-17 6.392e-18
8126.343 1.565e-17 6.434e-18
8127.888 1.732e-17 6.103e-18
8129.433 2.429e-17 6.477e-18
8130.977 1.956e-17 6.55e-18
8132.522 1.866e-17 6.736e-18
8134.067 1.109e-17 6.669e-18
8135.612 1.628e-17 7.329e-18
8137.157 3.312e-17 7.384e-18
8138.701 2.825e-17 7.278e-18
8140.246 2.025e-17 7.795e-18
8141.791 1.461e-17 6.512e-18
8143.336 1.357e-17 7.266e-18
8144.88 2.889e-17 7.474e-18
8146.425 2.768e-17 7.081e-18
8147.971 2.605e-17 7.289e-18
8149.515 8.844e-18 7.493e-18
8151.06 8.487e-18 6.699e-18
8152.604 2.691e-17 6.509e-18
8154.15 1.89e-17 6.894e-18
8155.695 1.147e-17 6.53e-18
8157.239 2.391e-17 6.587e-18
8158.784 2.826e-17 6.701e-18
8160.329 9.869e-18 6.958e-18
8161.874 1.001e-17 7.21e-18
8163.418 1.144e-17 7.312e-18
8164.964 1.221e-17 6.653e-18
8166.509 1.618e-17 6.525e-18
8168.053 1.923e-17 7.152e-18
8169.599 2.941e-17 7.355e-18
8171.143 2.289e-17 7.166e-18
8172.688 1.769e-17 6.721e-18
8174.234 4.088e-18 6.695e-18
8175.778 8.178e-18 7.006e-18
8177.324 1.29e-17 7.575e-18
8178.868 2.264e-17 7.857e-18
8180.413 1.641e-17 7.848e-18
8181.958 1.356e-17 8.131e-18
8183.503 3.439e-17 8.695e-18
8185.048 1.379e-17 7.832e-18
8186.593 9.28e-18 7.882e-18
8188.138 1.006e-17 8.11e-18
8189.683 3.406e-17 8.387e-18
8191.228 1.998e-17 8.515e-18
8192.774 1.946e-17 8.915e-18
8194.318 2.743e-17 9.211e-18
8195.863 3.435e-17 8.925e-18
8197.408 2.318e-17 8.019e-18
8198.953 2.071e-17 8.415e-18
8200.498 1.418e-17 7.414e-18
8202.043 1.697e-17 7.372e-18
8203.589 8.299e-18 7.038e-18
8205.133 9.568e-18 7.448e-18
8206.679 2.416e-17 7.308e-18
8208.223 2.903e-17 6.887e-18
8209.769 1.429e-17 6.788e-18
8211.314 1.298e-17 7.063e-18
8212.859 1.169e-17 6.808e-18
8214.404 1.612e-17 6.845e-18
8215.949 2.271e-17 7.036e-18
8217.494 2.755e-17 6.932e-18
8219.039 4.045e-18 6.678e-18
8220.584 1.778e-17 6.944e-18
8222.13 2.116e-17 7.381e-18
8223.675 2.5e-17 6.965e-18
8225.22 1.21e-17 7.257e-18
8226.765 1.882e-17 7.849e-18
8228.31 1.119e-17 8.32e-18
8229.856 1.531e-17 7.903e-18
8231.4 2.212e-17 7.451e-18
8232.946 2.186e-17 7.332e-18
8234.491 1.382e-17 7.182e-18
8236.036 2.454e-17 7.318e-18
8237.581 1.92e-17 7.375e-18
8239.126 2.321e-17 7.268e-18
8240.672 1.767e-17 7.128e-18
8242.217 2.218e-17 7.462e-18
8243.762 2.068e-17 7.506e-18
8245.307 1.34e-17 7.43e-18
8246.853 2.79e-17 7.059e-18
8248.398 1.378e-17 7.124e-18
8249.943 3.537e-17 7.112e-18
8251.489 8.869e-18 6.502e-18
8253.033 1.234e-17 7.194e-18
8254.579 1.831e-17 7.2e-18
8256.124 8.419e-18 6.663e-18
8257.669 1.913e-17 6.781e-18
8259.215 1.267e-17 6.55e-18
8260.76 1.427e-17 6.741e-18
8262.305 2.476e-17 7.109e-18
8263.85 2.085e-17 7.048e-18
8265.396 1.36e-17 7.107e-18
8266.941 1.098e-17 7.272e-18
8268.486 1.322e-17 6.413e-18
8270.032 1.918e-17 6.947e-18
8271.577 1.533e-17 7.139e-18
8273.122 5.959e-18 7.615e-18
8274.667 2.202e-17 1.003e-17
8276.213 5.924e-18 1.053e-17
8277.759 1.464e-17 1.324e-17
8279.304 1.538e-17 1.47e-17
8280.849 4.973e-18 1.401e-17
8282.394 3.787e-17 1.329e-17
8283.94 1.422e-17 1.32e-17
8285.485 1.906e-18 1.471e-17
8287.03 1.403e-18 1.514e-17
8288.576 -5.166e-18 1.524e-17
8290.121 7.785e-18 1.273e-17
8291.667 1.653e-17 1.123e-17
8293.212 -1.539e-17 1.155e-17
8294.757 -2.296e-18 1.543e-17
8296.303 2.027e-17 1.725e-17
8297.848 3.132e-17 1.711e-17
8299.394 -7.15e-19 1.561e-17
8300.939 8.73e-18 1.265e-17
8302.485 1.035e-17 9.003e-18
8304.029 3.913e-18 8.35e-18
8305.575 1.447e-17 8.115e-18
8307.121 3.281e-17 1.002e-17
8308.666 1.998e-17 1.037e-17
8310.212 1.665e-17 1.059e-17
8311.757 2.047e-17 9.792e-18
8313.303 4.61e-18 8.087e-18
8314.849 2.178e-17 7.881e-18
8316.393 -3.572e-18 7.174e-18
8317.939 1.93e-17 7.573e-18
8319.484 2.727e-17 7.552e-18
8321.03 1.386e-17 7.285e-18
8322.575 5.068e-18 6.994e-18
8324.121 2.444e-17 6.919e-18
8325.667 2.245e-17 7.06e-18
8327.212 1.795e-17 6.649e-18
8328.758 1.841e-17 7.044e-18
8330.303 1.43e-17 6.797e-18
8331.849 1.963e-17 6.963e-18
8333.395 1.623e-17 7.065e-18
8334.94 2.589e-17 7.439e-18
8336.486 7.387e-19 7.929e-18
8338.031 1.649e-17 8.846e-18
8339.577 7.939e-18 1.476e-17
8341.122 -1.324e-17 2.141e-17
8342.667 2.984e-17 2.209e-17
8344.213 3.076e-17 2.236e-17
8345.758 2.09e-17 1.957e-17
8347.304 -2.352e-18 1.444e-17
8348.849 -1.712e-19 1.247e-17
8350.395 6.117e-18 1.389e-17
8351.941 5.553e-17 1.544e-17
8353.487 6.344e-18 1.392e-17
8355.033 1.012e-17 1.118e-17
8356.578 1.413e-17 7.989e-18
8358.124 1.121e-17 7.792e-18
8359.669 1.749e-17 8.184e-18
8361.215 1.692e-17 9.167e-18
8362.761 1.521e-17 1.048e-17
8364.306 4.286e-18 9.458e-18
8365.852 2.048e-17 9.562e-18
8367.397 2.165e-17 8.256e-18
8368.943 2.074e-17 7.573e-18
8370.489 2.061e-17 6.958e-18
8372.034 2.051e-17 7.124e-18
8373.58 1.466e-17 6.609e-18
8375.125 1.233e-17 7.301e-18
8376.671 6.925e-18 7.703e-18
8378.216 3.082e-17 1.061e-17
8379.763 -4.854e-18 1.172e-17
8381.309 3.254e-17 1.214e-17
8382.854 2.091e-17 1.201e-17
8384.4 2.027e-17 1.01e-17
8385.945 5.287e-18 7.849e-18
8387.491 1.087e-17 7.197e-18
8389.036 6.277e-18 6.948e-18
8390.582 9.2e-18 6.673e-18
8392.129 1.767e-17 7.458e-18
8393.674 6.252e-18 9.108e-18
8395.22 1.267e-17 1.549e-17
8396.765 2.915e-17 1.923e-17
8398.311 7.049e-17 2.03e-17
8399.857 1.615e-17 1.838e-17
8401.402 -1.243e-17 1.388e-17
8402.949 2.522e-17 9.354e-18
8404.494 1.083e-17 7.423e-18
8406.04 1.637e-17 7.104e-18
8407.585 9.24e-18 6.872e-18
8409.131 2.507e-17 7.365e-18
8410.678 -1.623e-17 9.421e-18
8412.223 1.187e-17 1.206e-17
8413.769 6.26e-18 1.276e-17
8415.314 -1e-17 1.26e-17
8416.86 2.529e-17 1.105e-17
8418.407 1.863e-17 8.507e-18
8419.952 2.343e-17 7.464e-18
8421.498 1.742e-17 7.239e-18
8423.043 1.327e-17 7.676e-18
8424.59 -9.257e-18 9.928e-18
8426.135 4.18e-17 1.632e-17
8427.681 -1.167e-17 1.964e-17
8429.227 -2.227e-17 2.03e-17
8430.773 -1.037e-17 1.934e-17
8432.319 2.293e-17 1.485e-17
8433.864 2.747e-17 9.832e-18
8435.41 1.647e-17 7.677e-18
8436.957 1.002e-17 6.988e-18
8438.502 1.287e-17 6.715e-18
8440.048 1.472e-17 6.582e-18
8441.593 2.123e-17 6.688e-18
8443.14 2.111e-17 6.727e-18
8444.685 1.907e-17 6.723e-18
8446.231 1.113e-17 7.121e-18
8447.778 8.719e-18 9.197e-18
8449.323 2.289e-17 1.147e-17
8450.869 -8.881e-18 1.185e-17
8452.415 2.811e-17 1.185e-17
8453.961 2.264e-17 1.019e-17
8455.507 4.816e-18 7.949e-18
8457.052 1.844e-17 7.125e-18
8458.599 2.82e-17 7.34e-18
8460.144 1.333e-17 9.778e-18
8461.691 5.392e-17 1.495e-17
8463.236 -2.159e-19 1.676e-17
8464.782 2.946e-17 1.701e-17
8466.329 3.146e-17 1.571e-17
8467.874 -1.513e-18 1.123e-17
8469.42 1.94e-17 8.084e-18
8470.966 7.437e-18 7.161e-18
8472.512 2.559e-17 7.058e-18
8474.058 1.31e-17 6.93e-18
8475.604 3.264e-17 6.906e-18
8477.15 1.368e-17 6.571e-18
8478.696 1.699e-17 6.42e-18
8480.242 2.521e-17 6.505e-18
8481.787 5.858e-18 6.19e-18
8483.334 2.838e-17 6.424e-18
8484.88 1.742e-17 6.363e-18
8486.426 3.196e-17 6.53e-18
8487.972 9.956e-18 6.844e-18
8489.517 2.539e-17 8.762e-18
8491.064 7.557e-18 9.815e-18
8492.609 7.804e-18 1.012e-17
8494.156 5.914e-18 9.746e-18
8495.702 2.639e-17 8.456e-18
8497.247 2.3e-17 7.262e-18
8498.794 1.526e-17 7.377e-18
8500.339 2.003e-17 9.786e-18
8501.886 -1.151e-17 1.216e-17
8503.432 1.478e-17 1.288e-17
8504.978 2.925e-17 1.262e-17
8506.524 2.127e-17 1.082e-17
8508.07 3.874e-18 7.869e-18
8509.616 1.446e-17 6.636e-18
8511.162 2.417e-18 6.188e-18
8512.708 1.578e-17 6.306e-18
8514.254 9.159e-18 6.119e-18
8515.8 1.532e-17 6.229e-18
8517.346 1.294e-17 6.423e-18
8518.892 1.32e-17 6.472e-18
8520.438 2.658e-17 6.511e-18
8521.985 5.32e-18 6.252e-18
8523.53 2.374e-17 6.287e-18
8525.077 9.654e-18 6.111e-18
8526.622 2.187e-17 6.222e-18
8528.169 5.958e-18 6.107e-18
8529.714 1.775e-17 6.171e-18
8531.261 1.25e-17 6.147e-18
8532.808 6.335e-18 6.235e-18
8534.353 2.008e-17 7.091e-18
8535.9 2.092e-17 7.813e-18
8537.445 4.736e-18 8.012e-18
8538.992 2.668e-17 8.148e-18
8540.538 2.665e-17 7.481e-18
8542.084 2.012e-17 6.871e-18
8543.63 2.085e-17 7.355e-18
8545.176 2.461e-17 8.812e-18
8546.722 6.856e-18 9.477e-18
8548.268 6.998e-18 9.6e-18
8549.814 7.043e-18 9.05e-18
8551.361 9.236e-18 7.547e-18
8552.907 1.811e-17 6.723e-18
8554.453 4.093e-18 6.365e-18
8555.999 1.823e-17 6.274e-18
8557.545 2.044e-17 6.232e-18
8559.092 1.494e-17 6.161e-18
8560.638 8.224e-18 6.241e-18
8562.184 1.132e-17 6.178e-18
8563.73 2.664e-17 6.322e-18
8565.276 1.386e-17 6.259e-18
8566.822 2.672e-17 6.33e-18
8568.368 1.504e-17 6.372e-18
8569.915 4.615e-18 6.406e-18
8571.461 1.055e-17 6.525e-18
8573.007 2.803e-17 6.706e-18
8574.553 2.13e-17 6.661e-18
8576.1 2.635e-17 6.612e-18
8577.645 1.57e-17 6.506e-18
8579.192 1.315e-17 6.41e-18
8580.738 1.731e-17 6.333e-18
8582.284 1.965e-17 6.447e-18
8583.831 2.132e-17 6.849e-18
8585.376 -4.126e-19 7.193e-18
8586.923 2.242e-17 7.474e-18
8588.47 3.397e-17 7.581e-18
8590.015 1.652e-17 7.146e-18
8591.562 1.937e-17 6.873e-18
8593.108 5.967e-18 7.379e-18
8594.654 2.362e-17 7.831e-18
8596.2 5.228e-18 7.8e-18
8597.747 1.02e-18 7.735e-18
8599.293 6.484e-18 7.279e-18
8600.839 1.666e-17 6.81e-18
8602.386 5.692e-18 6.569e-18
8603.931 1.299e-17 6.633e-18
8605.478 3.791e-18 6.565e-18
8607.025 2.042e-17 6.83e-18
8608.57 1.432e-17 7.067e-18
8610.117 1.29e-17 7.379e-18
8611.663 2.874e-17 7.906e-18
8613.209 1.656e-17 8.175e-18
8614.755 3.456e-17 8.887e-18
8616.302 1.713e-17 9.305e-18
8617.849 9.264e-18 9.898e-18
8619.394 2.22e-17 1.053e-17
8620.941 1.76e-17 1.11e-17
8622.487 1.505e-17 1.147e-17
8624.033 3.123e-17 1.204e-17
8625.58 4.906e-18 1.232e-17
8627.126 1.264e-17 1.24e-17
8628.673 -1.088e-17 1.243e-17
8630.218 3.89e-17 1.25e-17
8631.765 2.272e-17 1.225e-17
8633.311 2.792e-17 1.201e-17
8634.858 2.501e-17 1.134e-17
8636.404 1.469e-17 1.092e-17
8637.95 1.563e-17 1.024e-17
8639.497 1.308e-18 9.544e-18
8641.042 3.061e-17 9.208e-18
8642.589 1.913e-17 8.705e-18
8644.136 1.094e-17 8.618e-18
8645.682 3.718e-17 9.761e-18
8647.229 2.254e-17 1.085e-17
8648.774 -1.305e-17 1.129e-17
8650.321 -2.644e-17 1.187e-17
8651.867 2.147e-17 1.264e-17
8653.414 1.577e-17 1.231e-17
8654.96 2.632e-17 1.265e-17
8656.506 1.531e-17 1.293e-17
8658.053 2.006e-17 1.25e-17
8659.599 3.823e-18 1.231e-17
8661.146 2.96e-17 1.273e-17
8662.691 8.31e-19 1.209e-17
8664.238 7.504e-18 1.173e-17
8665.785 1.889e-17 1.205e-17
8667.331 3.258e-17 1.172e-17
8668.877 1.001e-17 1.096e-17
8670.423 -7.116e-19 1.087e-17
8671.97 1.777e-17 1.076e-17
8673.517 1.258e-17 1.013e-17
8675.063 1.505e-17 9.937e-18
8676.61 2.311e-17 9.939e-18
8678.155 2.715e-17 9.483e-18
8679.702 -2.32e-18 8.982e-18
8681.248 3.277e-17 9.137e-18
8682.795 6.372e-18 8.754e-18
8684.342 5.33e-19 8.352e-18
8685.887 2.651e-17 8.386e-18
8687.434 1.331e-17 8.174e-18
8688.98 1.901e-17 8.056e-18
8690.527 1.489e-17 7.822e-18
8692.074 7.721e-18 7.828e-18
8693.62 8.619e-18 7.813e-18
8695.167 5.511e-18 7.72e-18
8696.712 1.131e-17 7.919e-18
8698.259 1.992e-19 7.874e-18
8699.805 9.166e-18 7.98e-18
8701.352 5.131e-18 7.731e-18
8702.899 2.17e-17 7.937e-18
8704.445 1.994e-17 8.002e-18
8705.992 -1.532e-17 7.777e-18
8707.537 1.214e-17 7.94e-18
8709.084 3.505e-18 7.595e-18
8710.631 1.183e-17 7.277e-18
8712.177 1.297e-17 7.246e-18
8713.724 1.606e-17 7.283e-18
8715.27 2.443e-17 7.338e-18
8716.817 1.012e-17 7.221e-18
8718.362 1.639e-17 7.204e-18
8719.909 6.571e-18 7.17e-18
8721.456 9.924e-18 7.221e-18
8723.002 1.242e-17 7.417e-18
8724.549 2.835e-17 7.515e-18
8726.095 1.452e-17 7.49e-18
8727.642 1.399e-17 7.397e-18
8729.188 8.559e-18 7.243e-18
8730.735 5.807e-18 7.195e-18
8732.282 2.358e-17 7.323e-18
8733.827 2.429e-17 7.339e-18
8735.374 7.707e-18 7.393e-18
8736.92 6.839e-18 7.51e-18
8738.467 1.597e-17 7.611e-18
8740.014 1.859e-17 7.555e-18
8741.56 1.712e-17 7.573e-18
8743.107 1.664e-17 7.479e-18
8744.653 2.214e-17 7.497e-18
8746.2 1.106e-17 7.408e-18
8747.746 3.181e-17 7.64e-18
8749.293 6.02e-18 7.484e-18
8750.84 1.728e-17 7.635e-18
8752.385 6.335e-18 7.552e-18
8753.932 9.386e-18 8.774e-18
8755.478 2.34e-17 1.127e-17
8757.025 3.836e-18 1.504e-17
8758.572 1.685e-17 1.774e-17
8760.118 -1.735e-17 1.785e-17
8761.665 2.849e-17 1.756e-17
8763.211 4.304e-17 1.827e-17
8764.758 4.543e-17 1.955e-17
8766.304 -5.793e-17 1.962e-17
8767.851 2.767e-17 1.898e-17
8769.398 8.921e-18 1.561e-17
8770.944 2.469e-17 1.152e-17
8772.491 1.897e-17 1.328e-17
8774.037 1.235e-18 1.79e-17
8775.584 1.694e-17 2.076e-17
8777.131 -2.435e-17 2.06e-17
8778.677 2.073e-17 1.881e-17
8780.224 1.899e-17 1.423e-17
8781.769 2.343e-17 9.311e-18
8783.316 2.452e-17 8.024e-18
8784.862 9.482e-18 7.76e-18
8786.409 1.111e-17 9.612e-18
8787.956 -8.976e-19 1.218e-17
8789.502 2.989e-17 1.288e-17
8791.049 -1.348e-17 1.255e-17
8792.595 4.474e-17 1.134e-17
8794.142 1.317e-17 8.574e-18
8795.689 5.907e-18 7.462e-18
8797.235 5.887e-18 7.245e-18
8798.782 3.466e-18 7.283e-18
8800.328 8.835e-18 7.213e-18
8801.875 1.375e-17 7.264e-18
8803.421 2.212e-17 7.297e-18
8804.968 1.08e-17 7.363e-18
8806.515 3.177e-17 7.882e-18
8808.061 9.815e-18 7.868e-18
8809.608 2.424e-17 8.012e-18
8811.154 1.418e-17 7.831e-18
8812.701 1.362e-17 7.448e-18
8814.247 9.894e-18 7.247e-18
8815.794 1.882e-17 7.299e-18
8817.341 1.638e-17 7.377e-18
8818.887 2.095e-17 7.64e-18
8820.434 1.449e-17 9.227e-18
8821.98 9.491e-18 1.613e-17
8823.527 7.573e-17 2.542e-17
8825.074 -1.22e-19 2.777e-17
8826.62 2.212e-17 2.795e-17
8828.167 7.776e-18 2.503e-17
8829.713 -2.427e-18 1.636e-17
8831.26 -1.859e-17 1.302e-17
8832.806 4.133e-17 1.677e-17
8834.353 3.513e-17 1.789e-17
8835.9 9.33e-18 1.742e-17
8837.446 2.746e-17 1.576e-17
8838.993 1.015e-17 1.078e-17
8840.539 2.109e-17 8.07e-18
8842.087 8.13e-18 7.522e-18
8843.634 2.761e-17 7.881e-18
8845.18 1.562e-17 9.331e-18
8846.727 1.507e-17 1.09e-17
8848.273 1.87e-17 1.122e-17
8849.82 1.786e-17 1.101e-17
8851.366 5.166e-18 9.769e-18
8852.913 2.725e-18 7.766e-18
8854.46 8.824e-18 7.124e-18
8856.006 2.492e-17 7.151e-18
8857.553 1.079e-17 7.085e-18
8859.099 1.898e-17 7.584e-18
8860.646 1.701e-17 7.715e-18
8862.193 1.611e-17 9.032e-18
8863.739 3.02e-17 1.291e-17
8865.286 3.637e-17 1.444e-17
8866.832 5.982e-18 1.433e-17
8868.379 2.938e-17 1.354e-17
8869.925 8.029e-18 9.889e-18
8871.472 3.153e-18 7.413e-18
8873.019 1.131e-17 6.942e-18
8874.565 2.042e-17 6.781e-18
8876.112 1.991e-17 6.788e-18
8877.659 1.243e-17 6.835e-18
8879.206 7.655e-18 7.406e-18
8880.752 1.247e-17 1.243e-17
8882.299 1.498e-17 2.056e-17
8883.846 2.825e-17 2.271e-17
8885.392 3.508e-17 2.29e-17
8886.939 -2.952e-17 2.047e-17
8888.485 -1.788e-17 1.265e-17
8890.032 1.278e-17 8.348e-18
8891.579 2.301e-17 7.399e-18
8893.125 2.214e-17 7.247e-18
8894.672 1.848e-17 7.216e-18
8896.218 1.309e-17 7.302e-18
8897.765 1.224e-17 8.807e-18
8899.312 6.72e-18 1.317e-17
8900.859 1.307e-17 1.497e-17
8902.406 2.175e-17 1.512e-17
8903.952 4.586e-17 1.429e-17
8905.499 2.419e-17 1.044e-17
8907.045 1.48e-17 7.897e-18
8908.592 6.384e-18 7.332e-18
8910.139 1.411e-17 7.193e-18
8911.685 1.44e-17 7.124e-18
8913.232 1.583e-17 7.805e-18
8914.778 1.003e-17 1.442e-17
8916.325 5.928e-17 2.178e-17
8917.871 4.852e-17 2.33e-17
8919.419 3.484e-17 2.325e-17
8920.966 -8.256e-19 2.003e-17
8922.512 -8.959e-18 1.164e-17
8924.059 7.426e-18 8.297e-18
8925.605 1.336e-17 7.541e-18
8927.152 7.1e-18 7.508e-18
8928.699 2.265e-17 7.884e-18
8930.245 7.13e-18 7.675e-18
8931.792 1.46e-17 7.115e-18
8933.338 2.229e-17 6.809e-18
8934.885 1.406e-17 7.62e-18
8936.432 3.19e-19 7.046e-18
8937.979 1.578e-17 8.063e-18
8939.526 1.064e-17 1.136e-17
8941.072 3.18e-17 1.362e-17
8942.619 -2.756e-17 1.485e-17
8944.165 2.224e-17 1.363e-17
8945.712 8.771e-18 9.862e-18
8947.258 2.741e-17 7.494e-18
8948.805 1.713e-17 7.072e-18
8950.352 2.189e-17 7.178e-18
8951.899 -2.318e-18 7.455e-18
8953.446 -1.5e-17 1.55e-17
8954.992 2.546e-17 2.177e-17
8956.539 1.115e-17 1.998e-17
8958.086 3.8e-17 2.1e-17
8959.632 -1.708e-18 1.681e-17
8961.179 -1.55e-17 1.042e-17
8962.725 2.612e-17 8.266e-18
8964.272 1.031e-17 7.608e-18
8965.818 9.307e-18 7.037e-18
8967.366 1.086e-17 7.369e-18
8968.913 9.813e-18 7.279e-18
8970.459 9.127e-18 7.397e-18
8972.006 1.246e-17 7.879e-18
8973.552 5.76e-18 7.358e-18
8975.099 1.576e-17 7.315e-18
8976.646 6.391e-18 7.132e-18
8978.192 2.033e-17 7.137e-18
8979.739 1.085e-17 7.534e-18
8981.286 1.204e-17 8.277e-18
8982.833 1.786e-17 8.758e-18
8984.379 1.363e-17 1.146e-17
8985.926 -3.398e-18 1.37e-17
8987.473 2.691e-17 1.473e-17
8989.019 1.38e-17 1.459e-17
8990.566 2.427e-17 1.229e-17
8992.112 1.124e-17 9.241e-18
8993.659 1.832e-17 7.791e-18
8995.207 1.015e-17 7.344e-18
8996.753 8.649e-18 1.217e-17
8998.3 1.132e-17 1.524e-17
8999.846 6.059e-18 1.756e-17
9001.393 -4.329e-18 1.839e-17
9002.939 2.91e-17 1.441e-17
9004.486 1.688e-17 9.441e-18
9006.033 1.19e-17 7.75e-18
9007.579 2.708e-17 7.378e-18
9009.127 8.9e-18 7.167e-18
9010.673 1.71e-17 7.092e-18
9012.22 1.602e-17 6.97e-18
9013.766 -3.83e-18 7.122e-18
9015.313 1.628e-17 7.034e-18
9016.86 1.652e-17 8.039e-18
9018.406 2.902e-17 8.058e-18
9019.953 1.49e-17 7.221e-18
9021.499 1.588e-17 7.37e-18
9023.047 1.579e-17 7.205e-18
9024.594 1.915e-17 7.971e-18
9026.14 2.415e-17 7.803e-18
9027.687 3.171e-17 7.388e-18
9029.233 -5.424e-18 7.335e-18
9030.78 1.508e-17 7.236e-18
9032.326 2.184e-17 7.185e-18
9033.873 1.16e-18 8.972e-18
9035.421 2.501e-17 9.452e-18
9036.967 1.499e-17 9.66e-18
9038.514 1.868e-17 9.535e-18
9040.06 1.424e-17 8.81e-18
9041.607 7.343e-18 7.638e-18
9043.154 1.643e-17 7.39e-18
9044.7 2.639e-17 9.248e-18
9046.247 2.324e-17 1.22e-17
9047.793 8.368e-18 1.221e-17
9049.341 3.155e-17 1.294e-17
9050.887 1.291e-17 1.033e-17
9052.434 9.108e-18 8.698e-18
9053.981 2.559e-17 7.348e-18
9055.527 2.368e-17 7.067e-18
9057.074 1.211e-17 7.056e-18
9058.62 6.954e-18 7.425e-18
9060.167 -2.933e-18 7.205e-18
9061.714 5.83e-18 7.675e-18
9063.261 7.409e-19 7.215e-18
9064.808 1.977e-17 8.054e-18
9066.354 9.385e-18 7.43e-18
9067.901 2.158e-17 7.87e-18
9069.447 6.017e-18 7.84e-18
9070.994 9.13e-18 8.292e-18
9072.541 1.975e-17 8.273e-18
9074.087 1.36e-17 7.116e-18
9075.635 7.246e-18 7.573e-18
9077.181 -1.534e-18 7.15e-18
9078.728 2.028e-17 7.598e-18
9080.274 9.196e-19 8.26e-18
9081.821 9.177e-18 7.74e-18
9083.368 1.583e-17 7.943e-18
9084.914 9.78e-18 7.733e-18
9086.461 1.499e-17 7.587e-18
9088.007 3.492e-18 8.093e-18
9089.554 -7.729e-18 8.349e-18
9091.102 1.866e-17 9.248e-18
9092.648 7.402e-18 9.277e-18
9094.195 1.966e-17 9.298e-18
9095.741 1.748e-17 8.093e-18
9097.288 2.334e-17 7.856e-18
9098.834 -1.989e-17 1.025e-17
9100.381 -6.923e-18 1.108e-17
9101.928 5.051e-17 1.166e-17
9103.474 5.588e-18 1.022e-17
9105.022 1.047e-17 8.707e-18
9106.568 9.399e-18 7.7e-18
9108.115 2.237e-17 7.428e-18
9109.662 -1.975e-18 7.249e-18
9111.208 1.923e-17 7.531e-18
9112.755 1.571e-17 7.213e-18
9114.301 1.321e-17 7.19e-18
9115.848 2.541e-17 7.184e-18
9117.394 -7.222e-18 7.14e-18
9118.941 1.738e-17 7.591e-18
9120.489 2.239e-17 7.429e-18
9122.035 1.228e-17 7.208e-18
9123.582 1.454e-18 6.607e-18
9125.128 4.093e-19 6.79e-18
9126.675 1.511e-17 7.26e-18
9128.222 8.775e-18 7.811e-18
9129.768 1.16e-17 8.01e-18
9131.315 1.683e-17 8.117e-18
9132.861 3.328e-18 7.752e-18
9134.408 9.2e-18 8.492e-18
9135.954 4.883e-18 8.283e-18
9137.502 1.478e-17 8.534e-18
9139.049 1.109e-17 7.619e-18
9140.595 1.603e-17 7.303e-18
9142.142 1.514e-17 7.497e-18
9143.688 1.169e-17 7.219e-18
9145.235 1.695e-17 7.96e-18
9146.781 1.451e-17 8.078e-18
9148.328 1.504e-17 8.106e-18
9149.875 4.999e-18 8.918e-18
9151.421 -5.595e-18 9.677e-18
9152.968 2.303e-17 1.038e-17
9154.515 9.85e-19 9.593e-18
9156.062 1.237e-17 9.234e-18
9157.609 2.225e-17 9.837e-18
9159.155 9.486e-18 9.136e-18
9160.702 2.01e-17 8.901e-18
9162.248 6.282e-18 8.602e-18
9163.795 1.86e-17 8.201e-18
9165.341 -3.525e-18 7.495e-18
9166.888 1.041e-17 7.281e-18
9168.435 1.525e-17 8.046e-18
9169.981 1.799e-17 8.033e-18
9171.528 7.404e-18 7.959e-18
9173.074 -1.145e-17 8.704e-18
9174.621 1.453e-17 8.853e-18
9176.169 1.4e-17 7.99e-18
9177.715 1.969e-17 8.385e-18
9179.262 3.345e-18 7.808e-18
9180.808 1.632e-17 7.608e-18
9182.355 6.522e-18 8.684e-18
9183.901 1.14e-17 7.519e-18
9185.448 1.353e-17 7.454e-18
9186.995 3.133e-17 7.264e-18
9188.541 4.902e-18 7.276e-18
9190.088 1.227e-17 7.371e-18
9191.634 1.254e-17 8.043e-18
9193.181 6.796e-18 7.868e-18
9194.728 2.756e-18 6.699e-18
9196.274 3.572e-18 7.423e-18
9197.821 -8.093e-19 7.402e-18
9199.367 -8.113e-19 7.298e-18
9200.914 1.336e-17 7.252e-18
9202.46 1.061e-17 7.193e-18
9204.008 1.808e-18 6.843e-18
9205.555 3.442e-18 7.472e-18
9207.101 6.171e-18 7.756e-18
9208.648 1.223e-17 7.112e-18
9210.194 9.002e-18 7.592e-18
9211.741 1.321e-17 8.284e-18
9213.287 3.146e-17 8.559e-18
9214.834 1.473e-17 8.711e-18
9216.381 1.287e-17 9.166e-18
9217.927 1.451e-17 8.93e-18
9219.474 5.909e-18 8.191e-18
9221.02 -8.894e-18 8.574e-18
9222.567 1.218e-17 8.249e-18
9224.114 1.4e-17 9.153e-18
9225.66 3.026e-17 8.846e-18
9227.207 2.131e-17 7.956e-18
9228.753 1.182e-17 8.094e-18
9230.3 1.429e-17 7.426e-18
9231.846 6.649e-18 7.315e-18
9233.393 1.478e-17 7.455e-18
9234.94 6.312e-18 7.501e-18
9236.486 1.054e-17 7.416e-18
9238.033 1.305e-17 7.359e-18
9239.579 1.557e-17 7.186e-18
9241.126 1.106e-17 7.753e-18
9242.673 2.012e-17 7.307e-18
9244.219 -5.938e-18 7.82e-18
9245.766 6.016e-18 7.714e-18
9247.312 1.755e-17 8.525e-18
9248.859 1.062e-17 8.588e-18
9250.405 1.343e-17 8.375e-18
9251.952 2.983e-17 7.752e-18
9253.499 5.577e-18 7.58e-18
9255.045 1.815e-17 7.58e-18
9256.592 1.431e-17 7.048e-18
9258.138 1.008e-17 7.067e-18
9259.685 1.899e-17 7.009e-18
9261.231 1.717e-17 7.265e-18
9262.778 -7.884e-18 7.581e-18
9264.325 5.974e-18 7.519e-18
9265.871 5.477e-18 7.108e-18
9267.418 8.104e-18 6.775e-18
9268.964 1.473e-17 7.863e-18
9270.511 1.499e-17 7.008e-18
9272.058 2.058e-17 7.122e-18
9273.604 2.63e-17 6.788e-18
9275.151 4.371e-18 7.99e-18
9276.697 1.447e-18 7.414e-18
9278.244 1.023e-17 7.17e-18
9279.79 5.357e-18 7.269e-18
9281.337 8.735e-18 8.14e-18
9282.884 1.985e-17 8.681e-18
9284.43 1.667e-17 9.26e-18
9285.977 -1.074e-17 9.124e-18
9287.523 7.662e-18 7.774e-18
9289.07 1.876e-17 8.658e-18
9290.617 1.607e-17 9.097e-18
9292.163 9.216e-18 9.121e-18
9293.71 3.337e-17 9.617e-18
9295.256 2.018e-17 9.202e-18
9296.803 1.141e-17 8.728e-18
9298.348 1.181e-17 8.174e-18
9299.895 1.945e-17 1.001e-17
9301.442 -1.134e-17 1.478e-17
9302.988 -4.33e-17 2.119e-17
9304.535 -1.144e-17 2.475e-17
9306.081 8.056e-17 2.745e-17
9307.628 3.424e-17 2.645e-17
9309.175 1.32e-16 3.425e-17
9310.721 2.041e-17 3.127e-17
9312.268 -4.025e-17 3.285e-17
9313.814 -1.364e-17 3.147e-17
9315.361 -2.341e-17 2.327e-17
9316.907 -2.951e-17 2.19e-17
9318.454 6.012e-19 2.065e-17
9320.001 7.787e-17 2.73e-17
9321.546 8.024e-17 3.097e-17
9323.093 1.409e-17 3.458e-17
9324.639 -2.089e-17 3.362e-17
9326.186 -2.925e-17 2.322e-17
9327.732 1.092e-17 1.384e-17
9329.279 -1.018e-17 1.179e-17
9330.826 4.557e-18 1.27e-17
9332.372 9.972e-18 1.44e-17
9333.919 -1.256e-20 1.993e-17
9335.465 3.446e-17 2.331e-17
9337.011 -3.156e-18 2.195e-17
9338.558 4.082e-17 2.078e-17
9340.104 -1.073e-17 1.646e-17
9341.651 5.352e-18 1.603e-17
9343.197 1.132e-17 1.869e-17
9344.744 6.375e-17 2.235e-17
9346.29 4.249e-17 1.507e-17
9347.837 2.126e-17 1.331e-17
9349.384 3.859e-17 1.149e-17
9350.929 3.706e-18 1.114e-17
9352.476 -3.609e-18 1.33e-17
9354.022 4.461e-17 1.429e-17
9355.569 1.597e-17 1.497e-17
9357.116 3.146e-17 1.533e-17
9358.662 9.093e-18 1.289e-17
9360.209 -1.437e-18 1.337e-17
9361.754 3.501e-17 1.039e-17
9363.301 -1.26e-17 1.074e-17
9364.847 2.332e-17 1.181e-17
9366.394 1.24e-17 1.307e-17
9367.941 1.321e-17 1.606e-17
9369.487 -6.303e-17 2.178e-17
9371.034 6.399e-17 4.763e-17
9372.579 5.303e-17 5.427e-17
9374.126 8.257e-17 5.012e-17
9375.673 3.491e-17 5.033e-17
9377.219 4.27e-18 4.429e-17
9378.766 -7.853e-17 2.859e-17
9380.312 5.208e-18 1.919e-17
9381.858 4.675e-17 1.796e-17
9383.404 4.381e-17 1.374e-17
9384.951 2.355e-17 1.277e-17
9386.498 1.118e-17 1.145e-17
9388.044 1.705e-17 1.115e-17
9389.59 -2.641e-18 9.128e-18
9391.136 1.488e-17 8.346e-18
9392.683 -7.097e-18 8.446e-18
9394.229 1.544e-17 8.703e-18
9395.776 1.398e-17 9.535e-18
9397.322 5.188e-17 1.31e-17
9398.868 -1.727e-18 1.728e-17
9400.415 7.419e-18 1.758e-17
9401.961 1.693e-17 1.664e-17
9403.508 3.48e-17 1.611e-17
9405.054 1.164e-17 1.095e-17
9406.6 1.16e-17 9.623e-18
9408.147 2.072e-17 8.739e-18
9409.693 3.372e-17 9.634e-18
9411.24 4.669e-18 1.029e-17
9412.785 9.817e-18 1.004e-17
9414.332 -8.095e-18 1.169e-17
9415.879 7.502e-17 1.803e-17
9417.425 -6.369e-18 2.15e-17
9418.971 -3.036e-17 2.264e-17
9420.517 5.684e-17 2.12e-17
9422.064 3.107e-17 1.597e-17
9423.611 1.832e-17 1.155e-17
9425.156 -1.457e-17 1.124e-17
9426.703 1.622e-17 1.443e-17
9428.249 -7.06e-18 1.667e-17
9429.796 2.215e-17 1.387e-17
9431.341 1.776e-17 1.135e-17
9432.888 1.895e-17 1.062e-17
9434.435 -3.28e-18 1.671e-17
9435.981 -2.347e-17 3.032e-17
9437.527 -3.411e-17 4.386e-17
9439.073 -1.667e-17 5.349e-17
9440.62 8.792e-17 5.059e-17
9442.165 -1.37e-17 3.05e-17
9443.712 2.119e-17 1.678e-17
9445.259 -1.291e-18 1.274e-17
9446.805 9.511e-18 1.164e-17
9448.351 8.674e-18 1.106e-17
9449.897 1.116e-17 1.115e-17
9451.444 1.337e-17 1.111e-17
9452.99 1.173e-17 1.368e-17
9454.536 1.922e-18 2.842e-17
9456.083 5.112e-17 3.349e-17
9457.628 2.264e-17 3.613e-17
9459.175 -3.328e-18 3.4e-17
9460.721 -9.168e-18 2.221e-17
9462.267 2.485e-17 1.631e-17
9463.814 2.459e-17 1.087e-17
9465.36 1.231e-17 9.887e-18
9466.906 1.643e-17 1.146e-17
9468.452 -2.726e-18 1.269e-17
9469.999 3.208e-18 1.214e-17
9471.545 -1.297e-17 1.736e-17
9473.091 3.55e-17 3.232e-17
9474.638 -1.212e-17 3.175e-17
9476.183 -3.916e-17 3.417e-17
9477.73 3.417e-17 3.432e-17
9479.276 2.251e-17 2.54e-17
9480.822 -1.22e-17 1.593e-17
9482.369 3.062e-17 1.691e-17
9483.915 -1.466e-17 1.177e-17
9485.461 1.706e-17 9.14e-18
9487.007 2.999e-17 9.819e-18
9488.553 2.571e-17 1.056e-17
9490.1 3.192e-17 1.037e-17
9491.646 2.038e-17 1.182e-17
9493.192 2.917e-17 1.259e-17
9494.738 1.864e-17 1.408e-17
9496.284 9.994e-18 1.551e-17
9497.83 2.328e-17 1.891e-17
9499.377 5.281e-17 2.919e-17
9500.923 1.229e-17 3.612e-17
9502.469 6.546e-17 2.9e-17
9504.015 -6.992e-18 1.984e-17
9505.561 -8e-18 1.343e-17
9507.108 4.918e-18 9.239e-18
9508.653 2.142e-18 8.733e-18
9510.2 1.539e-17 8.98e-18
9511.746 2.552e-17 1.067e-17
9513.292 1.942e-17 1.213e-17
9514.838 2.352e-17 1.856e-17
9516.384 4.555e-17 2.438e-17
9517.93 9.186e-19 2.974e-17
9519.477 1.649e-17 3.005e-17
9521.023 2.365e-17 2.565e-17
9522.569 2.158e-17 1.468e-17
9524.115 9.809e-18 1.259e-17
9525.661 2.715e-17 1.215e-17
9527.207 3.18e-18 1.233e-17
9528.753 1.167e-17 1.182e-17
9530.3 2.188e-17 1.09e-17
9531.845 5.27e-17 1.262e-17
9533.392 1.204e-17 1.22e-17
9534.937 5.898e-18 1.236e-17
9536.484 3.177e-17 1.195e-17
9538.03 -5.236e-18 1.188e-17
9539.576 1.778e-18 1.032e-17
9541.122 2.184e-17 1.052e-17
9542.668 5.31e-18 1.163e-17
9544.214 2.018e-17 1.149e-17
9545.76 1.238e-17 1.234e-17
9547.306 1.163e-17 1.382e-17
9548.853 8.312e-18 1.805e-17
9550.398 4.076e-17 2.078e-17
9551.945 -1.562e-17 2.606e-17
9553.49 -4.974e-17 2.276e-17
9555.037 -1.231e-17 1.658e-17
9556.583 3.683e-17 1.511e-17
9558.129 2.491e-17 1.254e-17
9559.675 3.351e-17 1.223e-17
9561.22 -1.346e-17 1.327e-17
9562.767 -3.051e-17 2.449e-17
9564.312 1.09e-17 3.23e-17
9565.859 -4.243e-17 3.262e-17
9567.405 5.86e-18 3.115e-17
9568.951 -2.671e-17 2.597e-17
9570.497 1.222e-17 1.53e-17
9572.042 2.097e-17 1.157e-17
9573.589 1.112e-17 9.319e-18
9575.134 1.499e-17 9.038e-18
9576.681 1.242e-17 1.018e-17
9578.227 2.19e-17 9.592e-18
9579.773 -2.197e-18 1.063e-17
9581.319 2.878e-18 1.202e-17
9582.864 1.137e-18 1.194e-17
9584.411 1.18e-17 1.001e-17
9585.957 -1.906e-17 1.035e-17
9587.502 2.234e-17 1.078e-17
9589.049 1.023e-17 1.241e-17
9590.594 5.802e-18 1.455e-17
9592.141 4.138e-18 1.181e-17
9593.686 -6.069e-18 1.159e-17
9595.232 3.157e-18 1.079e-17
9596.779 8.306e-18 1.096e-17
9598.324 1.286e-17 9.935e-18
9599.87 1.608e-18 1.115e-17
9601.416 4.451e-17 1.071e-17
9602.962 1.504e-18 1.248e-17
9604.508 1.2e-18 1.707e-17
9606.054 1.901e-17 1.997e-17
9607.6 2.87e-17 1.592e-17
9609.145 -2.582e-17 1.503e-17
9610.692 -2.388e-18 1.149e-17
9612.237 1.93e-17 9.722e-18
9613.783 1.608e-17 1.066e-17
9615.33 -5.802e-18 1.177e-17
9616.875 1.591e-17 1.591e-17
9618.421 -1.745e-18 1.762e-17
9619.966 2.564e-17 1.851e-17
9621.513 2.086e-18 1.867e-17
9623.058 4.277e-17 1.564e-17
9624.604 2.733e-17 1.229e-17
9626.151 4.176e-18 1.319e-17
9627.696 9.439e-19 1.169e-17
9629.242 1.098e-17 1.093e-17
9630.787 7.013e-18 1.117e-17
9632.334 -1.043e-17 1.04e-17
9633.88 2.11e-17 9.828e-18
9635.425 2.587e-17 1.044e-17
9636.971 2.202e-17 1.234e-17
9638.517 2.166e-17 1.069e-17
9640.063 2.057e-17 1.035e-17
9641.608 1.994e-18 1.161e-17
9643.154 1.554e-17 1.141e-17
9644.701 5.221e-18 1.154e-17
9646.246 3.252e-18 1.193e-17
9647.792 6.226e-18 1.169e-17
9649.337 3.341e-18 1.171e-17
9650.883 -6.625e-18 1.114e-17
9652.43 2.384e-17 1.19e-17
9653.975 2.885e-17 1.177e-17
9655.521 3.282e-17 1.131e-17
9657.066 -4.669e-18 1.244e-17
9658.612 1.976e-17 1.15e-17
9660.158 2.079e-17 1.345e-17
9661.704 1.825e-17 1.266e-17
9663.25 3.735e-17 1.283e-17
9664.795 7.581e-18 1.638e-17
9666.341 -6.749e-18 1.624e-17
9667.886 1.862e-17 1.602e-17
9669.432 1.65e-17 1.685e-17
9670.979 -1.662e-17 1.393e-17
9672.524 2.662e-17 1.216e-17
9674.07 -1.704e-17 1.308e-17
9675.615 -1.381e-17 1.402e-17
9677.161 4.525e-17 1.584e-17
9678.706 1.966e-17 1.931e-17
9680.252 7.946e-18 2.257e-17
9681.798 3.433e-18 1.952e-17
9683.344 -1.112e-17 1.615e-17
9684.89 1.821e-17 1.28e-17
9686.435 4.94e-17 1.249e-17
9687.981 5.042e-18 1.515e-17
9689.526 1.424e-17 1.427e-17
9691.072 9.556e-18 1.458e-17
9692.618 1.886e-17 1.209e-17
9694.163 -6.254e-19 1.618e-17
9695.709 -1.885e-17 2.122e-17
9697.254 -2.866e-17 2.141e-17
9698.8 2.497e-17 2.338e-17
9700.346 4.553e-18 2.357e-17
9701.891 -3.039e-19 1.631e-17
9703.437 2.324e-17 1.358e-17
9704.983 1.013e-17 9.744e-18
9706.529 3.104e-18 1.194e-17
9708.074 1.29e-17 1.614e-17
9709.62 -4.009e-18 1.724e-17
9711.166 4.534e-17 1.912e-17
9712.711 2.627e-17 1.632e-17
9714.257 8.812e-18 1.606e-17
9715.802 6.172e-18 2.244e-17
9717.348 1.356e-17 2.535e-17
9718.894 2.163e-17 2.502e-17
9720.439 -1.993e-17 2.818e-17
9721.985 5.931e-18 1.979e-17
9723.53 -4.534e-18 1.455e-17
9725.076 2.199e-17 1.256e-17
9726.62 1.994e-17 1.113e-17
9728.166 1.457e-17 1.233e-17
9729.712 3.369e-18 1.088e-17
9731.257 9.328e-18 1.224e-17
9732.803 8.996e-18 1.652e-17
9734.348 1.678e-17 2.022e-17
9735.894 3.291e-17 2.106e-17
9737.44 6.371e-17 1.943e-17
9738.985 4.748e-17 1.809e-17
9740.531 2.371e-17 1.589e-17
9742.076 3.204e-17 1.274e-17
9743.622 1.83e-17 1.57e-17
9745.167 1.135e-17 1.392e-17
9746.713 3.521e-17 1.267e-17
9748.258 1.474e-17 1.115e-17
9749.803 7.668e-18 1.104e-17
9751.349 2.071e-17 1.257e-17
9752.894 1.691e-17 1.192e-17
9754.44 2.504e-17 1.284e-17
9755.985 8.372e-18 1.029e-17
9757.531 2.781e-17 1.167e-17
9759.077 1.473e-17 1.233e-17
9760.621 9.158e-18 1.045e-17
9762.167 1.252e-17 1.183e-17
9763.712 1.025e-17 1.123e-17
9765.258 8.03e-18 1.059e-17
9766.804 1.864e-17 1.085e-17
9768.349 -4.41e-18 1.025e-17
9769.894 1.694e-17 9.439e-18
9771.439 4.63e-18 1.052e-17
9772.985 1.289e-17 1.248e-17
9774.53 2.247e-17 1.083e-17
9776.076 3.31e-17 1.087e-17
9777.621 -1.706e-17 1.204e-17
9779.166 -6.891e-19 1.168e-17
9780.712 -1.069e-17 1.136e-17
9782.257 1.522e-17 1.442e-17
9783.802 1.497e-18 1.357e-17
9785.348 2.312e-17 1.587e-17
9786.893 2.389e-17 2.511e-17
9788.439 4.811e-17 3.266e-17
9789.984 9.596e-17 3.837e-17
9791.529 3.947e-17 4.02e-17
9793.074 -4.865e-18 2.88e-17
9794.62 2.142e-18 1.986e-17
9796.165 4.649e-17 2.202e-17
9797.71 3.264e-17 2.344e-17
9799.256 3.646e-17 2.354e-17
9800.801 -1.637e-17 2.189e-17
9802.346 2.009e-17 1.479e-17
9803.891 -9.279e-19 1.473e-17
9805.437 9.636e-19 1.366e-17
9806.982 2.84e-17 1.398e-17
9808.527 1.449e-17 1.512e-17
9810.073 3.045e-17 1.535e-17
9811.617 3.4e-17 1.809e-17
9813.163 -1.182e-17 1.5e-17
9814.709 3.475e-17 1.591e-17
9816.253 1.35e-17 1.306e-17
9817.799 4.597e-17 1.289e-17
9819.344 -8.998e-18 1.292e-17
9820.889 1.621e-17 1.208e-17
9822.434 2.834e-17 1.128e-17
9823.979 -1.915e-17 1.223e-17
9825.525 1.86e-17 1.324e-17
9827.07 8.878e-18 1.322e-17
9828.615 -6.219e-18 1.38e-17
9830.16 1.497e-17 1.196e-17
9831.705 3.293e-17 1.275e-17
9833.251 2.183e-17 1.077e-17
9834.796 3.858e-17 1.109e-17
9836.341 -3.297e-18 1.217e-17
9837.886 -1.069e-17 1.247e-17
9839.431 1.336e-17 1.092e-17
9840.976 1.398e-17 1.247e-17
9842.521 1.238e-17 1.098e-17
9844.067 2.925e-17 1.696e-17
9845.612 4.543e-17 2.122e-17
9847.157 1.868e-17 2.357e-17
9848.702 1.335e-17 2.166e-17
9850.247 -1.123e-18 1.97e-17
9851.793 1.373e-17 1.387e-17
9853.337 1.188e-17 1.271e-17
9854.883 -4.925e-18 1.156e-17
9856.427 -1.339e-17 1.104e-17
9857.973 2.567e-17 1.157e-17
9859.517 8.763e-18 1.229e-17
9861.063 -9.89e-18 1.206e-17
9862.608 -5.008e-18 1.22e-17
9864.152 3.172e-18 1.169e-17
9865.698 1.14e-17 1.313e-17
9867.242 3.678e-17 1.934e-17
9868.788 1.245e-17 3.422e-17
9870.332 4.212e-17 3.921e-17
9871.878 -6.037e-17 3.476e-17
9873.423 3.085e-17 3.278e-17
9874.968 -1.107e-17 1.942e-17
9876.513 1.718e-17 1.473e-17
9878.057 1.809e-17 1.284e-17
9879.603 7.051e-18 1.317e-17
9881.148 1.638e-17 1.294e-17
9882.693 2.615e-17 1.337e-17
9884.238 1.834e-17 1.293e-17
9885.782 1.987e-17 1.257e-17
9887.328 2.035e-17 1.313e-17
9888.872 -1.221e-17 1.382e-17
9890.417 -2.142e-17 1.835e-17
9891.963 3.179e-17 2.406e-17
9893.507 -1.792e-17 2.224e-17
9895.052 4.595e-17 2.411e-17
9896.597 3.871e-17 2.233e-17
9898.142 1.277e-17 1.573e-17
9899.687 2.511e-17 1.371e-17
9901.232 1.498e-17 1.311e-17
9902.777 7.898e-18 1.296e-17
9904.321 1.829e-17 1.299e-17
9905.867 8.82e-18 1.304e-17
9907.411 -7.893e-18 1.346e-17
9908.956 -2.216e-17 1.594e-17
9910.501 4.732e-17 2.788e-17
9912.046 -5.478e-17 3.676e-17
9913.591 -8.777e-17 3.846e-17
9915.135 -7.523e-17 3.783e-17
9916.681 -3.201e-17 3.091e-17
9918.226 -3.514e-17 1.885e-17
9919.77 2.144e-17 1.482e-17
9921.315 5.359e-18 1.378e-17
9922.859 2.446e-17 1.356e-17
9924.405 2.054e-17 1.356e-17
9925.949 5.049e-19 1.342e-17
9927.494 3.073e-18 1.331e-17
9929.039 3.836e-17 1.364e-17
9930.583 5.925e-18 1.369e-17
9932.129 2.851e-17 1.386e-17
9933.673 3.225e-17 1.407e-17
9935.218 9.873e-18 1.46e-17
9936.762 -1.157e-17 1.714e-17
9938.307 1.799e-18 2.451e-17
9939.852 -1.275e-17 2.91e-17
9941.397 6.686e-17 3.422e-17
9942.942 5.715e-17 4.072e-17
9944.486 -5.773e-17 4.148e-17
9946.031 1.105e-17 4.087e-17
9947.576 2.684e-17 3.75e-17
9949.12 -8.556e-17 2.883e-17
9950.665 -2.181e-17 2.223e-17
9952.209 -3.793e-17 2.459e-17
9953.755 4.007e-17 3.301e-17
9955.299 -1.192e-18 3.523e-17
9956.844 -3.654e-17 3.706e-17
9958.389 -4.851e-17 3.937e-17
9959.933 6.311e-17 3.713e-17
9961.478 7.786e-17 3.562e-17
9963.022 -1.619e-18 3.3e-17
9964.567 3.843e-17 2.488e-17
9966.112 1.601e-17 1.801e-17
9967.656 -2.381e-18 1.797e-17
9969.201 9.923e-18 2.135e-17
9970.745 2.073e-17 2.301e-17
9972.29 -5.941e-18 2.335e-17
9973.834 6.125e-18 2.241e-17
9975.379 5.89e-18 1.933e-17
9976.924 3.306e-17 1.806e-17
9978.468 3.964e-18 1.736e-17
9980.013 1.183e-17 1.678e-17
9981.557 -2.746e-17 1.562e-17
9983.102 -4.913e-18 1.505e-17
9984.647 2.816e-18 1.483e-17
9986.191 8.677e-18 1.483e-17
9987.736 -1.215e-18 1.503e-17
9989.28 4.081e-17 1.517e-17
9990.825 9.426e-18 1.504e-17
9992.368 1.497e-17 1.519e-17
9993.913 3.404e-17 1.544e-17
9995.458 1.509e-18 1.684e-17
9997.002 1.011e-17 2.027e-17
9998.547 -4.446e-18 2.201e-17
10000.091 4.759e-17 2.26e-17
10001.636 -5.759e-18 2.142e-17
10003.18 1.474e-17 1.889e-17
10004.725 2.568e-17 1.758e-17
10006.269 2.896e-17 1.829e-17
10007.813 2.041e-17 2.531e-17
10009.358 -4.861e-17 4.166e-17
10010.902 3.998e-17 5.093e-17
10012.447 -6.283e-17 5.297e-17
10013.992 -8.581e-18 5.079e-17
10015.535 -3.738e-18 3.905e-17
10017.08 5.09e-17 2.569e-17
10018.624 7.392e-18 2.072e-17
10020.169 1.988e-17 2.089e-17
10021.712 1.86e-17 2.719e-17
10023.257 1.557e-18 3.185e-17
10024.802 8.543e-19 3.243e-17
10026.346 6.243e-17 3.186e-17
10027.891 -1.502e-17 2.641e-17
10029.434 -4.111e-18 1.995e-17
10030.979 2.676e-17 1.811e-17
10032.524 9.924e-18 1.743e-17
10034.067 2.217e-18 1.742e-17
10035.612 -5.265e-18 1.779e-17
10037.156 3.698e-17 1.817e-17
10038.701 1.867e-17 1.875e-17
10040.244 -1.418e-18 2.19e-17
10041.789 5.252e-17 2.39e-17
10043.334 1.687e-17 2.391e-17
10044.877 5.502e-17 2.348e-17
10046.422 -3.761e-18 2.03e-17
10047.966 7.472e-18 1.785e-17
10049.51 -6.804e-18 1.731e-17
10051.055 -4.801e-18 1.693e-17
10052.599 1.614e-17 1.722e-17
10054.143 7.402e-18 1.786e-17
10055.687 -1.797e-18 1.988e-17
10057.231 -2.889e-17 2.539e-17
10058.775 1.071e-16 2.96e-17
10060.32 4.787e-17 3.028e-17
10061.864 -5.572e-17 2.881e-17
10063.408 -4.773e-17 2.554e-17
10064.952 3.264e-17 2.332e-17
10066.496 1.371e-17 2.328e-17
10068.04 1.728e-17 2.491e-17
10069.584 9.48e-19 2.52e-17
10071.128 -6.489e-17 2.417e-17
10072.673 -1.697e-19 2.354e-17
10074.217 2.882e-17 2.149e-17
10075.761 -4.311e-17 2.032e-17
10077.305 5.969e-18 2.29e-17
10078.849 -5.448e-18 3.473e-17
10080.394 6.581e-17 4.393e-17
10081.937 -4.453e-17 4.583e-17
10083.482 1.599e-17 4.548e-17
10085.025 1.757e-17 3.706e-17
10086.569 -5.124e-18 2.629e-17
10088.113 -6.697e-20 2.182e-17
10089.657 -1.549e-18 2.044e-17
10091.202 5.248e-17 2.082e-17
10092.745 -1.682e-17 2.054e-17
10094.29 -7.06e-18 2.094e-17
10095.833 -1.525e-17 2.111e-17
10097.377 -3.014e-19 2.173e-17
10098.922 9.818e-18 2.367e-17
10100.465 1.303e-17 3.01e-17
10102.01 7.203e-18 3.405e-17
10103.553 -7.71e-17 3.432e-17
10105.097 2.744e-17 3.349e-17
10106.641 -4.618e-17 2.768e-17
10108.185 1.88e-17 2.366e-17
10109.729 2.756e-17 2.213e-17
10111.273 -3.611e-18 2.174e-17
10112.817 -2.605e-18 2.161e-17
10114.36 1.242e-17 2.214e-17
10115.905 2.133e-18 2.263e-17
10117.449 -5.942e-17 2.291e-17
10118.992 2.259e-17 2.742e-17
10120.537 -4.893e-17 4.137e-17
10122.08 -7.252e-17 5.154e-17
10123.624 1.205e-16 5.529e-17
10125.167 -1.004e-16 5.359e-17
10126.712 -2.272e-17 4.372e-17
10128.256 1.964e-18 3.253e-17
10129.799 -8.06e-19 2.745e-17
10131.343 1.182e-17 2.626e-17
10132.887 -4.422e-17 2.567e-17
10134.431 -3.709e-18 2.597e-17
10135.974 2.339e-17 2.564e-17
10137.518 -2.019e-18 2.516e-17
10139.062 -2.752e-17 2.532e-17
10140.606 -8.473e-18 2.661e-17
10142.15 3.038e-18 2.796e-17
10143.693 -3.96e-17 2.869e-17
10145.237 -4.716e-17 2.977e-17
10146.781 4.069e-18 3.036e-17
10148.324 -2.846e-17 3.163e-17
10149.869 1.777e-17 3.745e-17
10151.412 3.902e-17 4.123e-17
10152.956 1.628e-17 4.192e-17
10154.499 -2.233e-17 4.163e-17
10156.043 -2.648e-17 3.909e-17
10157.587 3.867e-17 3.658e-17
10159.13 -1.675e-18 3.522e-17
10160.674 -2.248e-17 3.46e-17
10162.217 -2.973e-17 3.38e-17
10163.761 3.226e-17 3.388e-17
10165.305 3.082e-18 3.435e-17
10166.848 2.369e-17 3.786e-17
10168.392 6.032e-17 5.097e-17
10169.935 -3.806e-17 6.284e-17
10171.479 4.963e-17 6.762e-17
10173.022 5.507e-17 6.648e-17
10174.566 -7.225e-17 5.601e-17
10176.11 -6.775e-17 4.304e-17
10177.653 1.155e-17 3.855e-17
10179.197 5.08e-18 3.943e-17
10180.74 -5.901e-17 3.997e-17
10182.284 -8.196e-17 4.053e-17
10183.828 1.411e-17 3.977e-17
10185.371 2.396e-17 4.225e-17
10186.915 5.449e-17 5.294e-17
10188.458 -6.495e-18 5.966e-17
10190.002 3.309e-17 6.145e-17
10191.545 1.807e-17 5.907e-17
10193.089 1.162e-17 5.01e-17
10194.633 3.266e-17 4.181e-17
10196.176 2.089e-17 3.819e-17
10197.719 -2.27e-17 3.733e-17
10199.262 9.824e-18 4.093e-17
10200.806 5.05e-18 4.672e-17
10202.349 -1.365e-16 4.915e-17
10203.893 3.309e-17 5.139e-17
10205.437 -1.187e-16 5.234e-17
10206.98 6.084e-18 5.867e-17
10208.523 -9.551e-18 7.057e-17
10210.066 -6.064e-17 7.715e-17
10211.61 -8.893e-17 7.694e-17
10213.154 -1.392e-17 7.005e-17
10214.696 -8.948e-17 5.655e-17
10216.24 -7.385e-17 4.655e-17
10217.783 -9.089e-17 4.209e-17
10219.327 1.206e-16 4.279e-17
10220.869 -5.853e-17 4.293e-17
10222.413 1.862e-17 5.049e-17
10223.957 -9.223e-18 5.75e-17
10225.5 -8.118e-17 6.168e-17
10227.043 -5.037e-17 6.481e-17
10228.586 -8.215e-18 6.528e-17
10230.13 2.456e-17 6.234e-17
10231.673 -2.207e-17 5.945e-17
10233.216 -9.065e-17 5.456e-17
10234.76 -1.655e-17 5.002e-17
10236.302 -6.416e-17 4.505e-17
