# SIMPLE = T / Written by IDL: Tue Apr 30 16:35:48 2019
# BITPIX = -32 / IEEE single precision floating point
# NAXIS = 2 / number of data axes
# NAXIS1 = 311 /Number of positions along axis 1
# NAXIS2 = 2835 /Number of positions along axis 2
# EXTEND = T / FITS dataset may contain extensions
# COMMENT FITS (Flexible Image Transport System) format defined in Astronomy and
# COMMENT Astrophysics Supplement Series v44/p363, v44/p371, v73/p359, v73/p365.
# COMMENT Contact the NASA Science Office of Standards and Technology for the
# COMMENT FITS Definition document #100 and other FITS information.
# BZERO = 0 / offset data range to that of unsigned short
# BSCALE = 1 / default scaling factor
# OBJECT = 'ZTF18aajqcue-host' / object title
# OBSERVER= 'Lin Yan ' / observer
# IMGTYPE = 'object ' / observation type
# GAIN = 0.72 / e-/adu
# RON = 2.5 / system noise e-
# DICHROIC= 'D55 ' / Dichroic
# APERTURE= '1.5 ' / aperture (arcsecs)
# TURRET = 'APERTURE' / turret position
# LAMPS = '0000000 ' / lamps: D-FeAr-Hg-Ar-Ne-He-InCand
# BFILTER = 'OPEN ' / filter wheel
# OEXPTIME= 600. / originaly req. exposure time
# EXPTIME = 600. / actual exposure time
# UTSHUT = '2019-04-27T11:39:34.334' / UT shutter open
# DATE = '2019-04-27T11:49:55' / file creation date (YYYY-MM-DDThh:mm:ss UTC)
# NAMPSXY = '1 1 ' / number of amplifiers in y x
# CCDSUM = '1 1 ' / binning in x y
# ASEC1 = '[1:460,1:2835]' / amplifier section 1(LL)
# BSEC1 = '[411:460,1:2835]' / bias section 1(LL)
# CSEC1 = '[1:410,1:2835]' / ccd section 1(LL)
# DSEC1 = '[1:410,1:2835]' / data section 1(LL)
# TSEC1 = '[51:410,1:2835]' / trim section 1(LL)
# ROISEC = '[900:1259,565:3399]' / roi section
# DETID = 'CCD44-82_1' / detector ID
# DETNUM = '1 ' / Detector Number
# DETNAM = 'CCD44-82' / detector name
# FPA = 'DBSP_BLUE' / focal plan array
# UTC = '117 11:39:34.4' / <elapsed days> <time-obs>
# UT = '11:39:34.4' / time-obs
# OBSLST = '18:12:47.9' / lst-obs
# RA = '13:55:09.16' / Right Ascencion
# DEC = '+58:29:13.2' / Declination
# HOURANG = 'W04:16:58.2' / Hour angle, TCS format
# HA = '+04:16:58.2' / Hour angle
# AIRMASS = '1.517 ' / Airmass
# TELID = '200 ' / telescope ID
# TELFOCUS= '43.10 mm' / focus position
# CASSPA = '185.00 ' / cass ring angle
# PARALLAC= '91.49 ' / parallactic angle
# DHE = 'SDSU Gen III' / controller info
# CCDTEMP = '161.80 ' / detector mount temp
# SOFTVER = '3.4 ' / software version
# HDR_REV = '4.3 ' / gfits version
# GCOMMENT= ' ' / comment
# ANGLE = '27 deg 17 min' / Grating Angle
# GRATING = '600/4000' / //lines/mm & Blaze
# BIAS = 'bias_DBSP_BLUE_11.fits' / bias frame used
# OVERSCAN= -13 / additional overscan offset applied
# FLAT = 'flat_DBSP_BLUE_11_1.5_D55_600_4000.fits' / flatfield frame used
# FLATSECT= '[150:350]' / flatfield collapse section
# SIGCLIP = 15.0000 / LA Cosmic sigclip
# SIGFRAC = 0.0500000 / LA Cosmic sigfrac
# OBJLIM = 0.500000 / LA Cosmic objlim
# NITER = 4 / LA Cosmic niter
# NCOSMICS= 245 / number of cosmics found
# DATE-OBS= '2019-04-27' / UT date of observation (from UTSHUT keyword)
# MJD = 58600.4858140 / MJD corresponding to UTSHUT
# DISPLINE = 1480 / column/row along dispersion axis to find trace
# NDISP = 50 / number of columns/rows to sum to find and trace profile
# OPTIMALPROFILE = local / number of columns/rows to sum to find and trace profile
# WIDTH_LOCALPROFILE = 200 / width in pixels of local extraction profile
# X_GLOBPROF = [500,2000] / dispersion pixel range for global profile
# OBJ_APER = -6,11 / object extraction aperture
# SKY_APER = -65,-19,19,44 / sky extraction aperture
# ARCFILE1 = arc_DBSP_BLUE_11_0.5_D55_600_4000_FeAr.fits / arc file used
# END
# header info from red frame:
# SIMPLE = T / Written by IDL: Tue Apr 30 17:31:11 2019
# BITPIX = -32 / IEEE single precision floating point
# NAXIS = 2 / number of data axes
# NAXIS1 = 4107 /Number of positions along axis 1
# NAXIS2 = 401 /Number of positions along axis 2
# EXTEND = T / FITS dataset may contain extensions
# COMMENT FITS (Flexible Image Transport System) format defined in Astronomy and
# COMMENT Astrophysics Supplement Series v44/p363, v44/p371, v73/p359, v73/p365.
# COMMENT Contact the NASA Science Office of Standards and Technology for the
# COMMENT FITS Definition document #100 and other FITS information.
# BZERO = 0 / offset data range to that of unsigned short
# BSCALE = 1 / default scaling factor
# OBJECT = 'ZTF18aajqcue-host' / object title
# OBSERVER= 'Lin Yan ' / observer
# IMGTYPE = 'object ' / observation type
# GAIN = 2.8 / e-/adu
# RON = 8.5 / system noise e-
# DICHROIC= 'D55 ' / Dichroic
# APERTURE= '1.5 ' / aperture (arcsecs)
# TURRET = 'APERTURE' / turret position
# LAMPS = '0000000 ' / lamps: D-FeAr-Hg-Ar-Ne-He-InCand
# RFILTER = 'OPEN ' / filter wheel
# OEXPTIME= 600. / originaly req. exposure time
# EXPTIME = 600. / actual exposure time
# UTSHUT = '2019-04-27T11:39:34.252' / UT shutter open
# DATE = '2019-04-27T11:49:57' / file creation date (YYYY-MM-DDThh:mm:ss UTC)
# NAMPSXY = '1 1 ' / number of amplifiers in y x
# CCDSUM = '1 1 ' / binning in x y
# ASEC1 = '[1:4141,1:440]' / amplifier section 1(LL)
# BSEC1 = '[4122:4141,1:440]' / bias section 1(LL)
# CSEC1 = '[1:4121,1:440]' / ccd section 1(LL)
# DSEC1 = '[1:4121,1:440]' / data section 1(LL)
# TSEC1 = '[8:4121,1:440]' / trim section 1(LL)
# ROISEC = '[1:4114,785:1224]' / roi section
# DETID = 'LBNL_4Kx2K_1' / detector ID
# DETNUM = '1 ' / Detector Number
# DETNAM = 'LBNL_4Kx2K' / detector name
# FPA = 'DBSP_RED2' / focal plan array
# UTC = '117 11:39:34.3' / <elapsed days> <time-obs>
# UT = '11:39:34.3' / time-obs
# OBSLST = '18:12:47.8' / lst-obs
# RA = '13:55:09.16' / Right Ascencion
# DEC = '+58:29:13.2' / Declination
# HOURANG = 'W04:16:58.1' / Hour angle, TCS format
# HA = '+04:16:58.1' / Hour angle
# AIRMASS = '1.517 ' / Airmass
# TELID = '200 ' / telescope ID
# TELFOCUS= '43.10 mm' / focus position
# CASSPA = '185.00 ' / cass ring angle
# PARALLAC= '91.49 ' / parallactic angle
# DHE = 'SDSU Gen III' / controller info
# CCDTEMP = '129.957 ' / detector mount temp
# SOFTVER = '3.4 ' / software version
# HDR_REV = '4.3 ' / gfits version
# GCOMMENT= ' ' / comment
# ANGLE = '24 deg 38 min' / Grating Angle
# GRATING = '316/7500' / lines/mm & Blaze
# CRVAL1 = 48.519459
# CRVAL2 = 33.313332
# BIAS = 'bias_DBSP_RED2_11.fits' / bias frame used
# OVERSCAN= -3 / additional overscan offset applied
# FLAT = 'flat_DBSP_RED2_11_1.5_D55_316_7500.fits' / flatfield frame used
# FLATSECT= '[80:280]' / flatfield collapse section
# SIGCLIP = 10.0000 / LA Cosmic sigclip
# SIGFRAC = 0.0500000 / LA Cosmic sigfrac
# OBJLIM = 0.500000 / LA Cosmic objlim
# NITER = 4 / LA Cosmic niter
# NCOSMICS= 3311 / number of cosmics found
# DATE-OBS= '2019-04-27' / UT date of observation (from UTSHUT keyword)
# MJD = 58600.4858131 / MJD corresponding to UTSHUT
# DISPLINE = 1350 / column/row along dispersion axis to find trace
# NDISP = 50 / number of columns/rows to sum to find and trace profile
# OPTIMALPROFILE = local / number of columns/rows to sum to find and trace profile
# WIDTH_LOCALPROFILE = 200 / width in pixels of local extraction profile
# X_GLOBPROF = [500,4000] / dispersion pixel range for global profile
# OBJ_APER = -7,8 / object extraction aperture
# SKY_APER = -51,-21,19,76 / sky extraction aperture
# ARCFILE1 = arc_DBSP_RED2_11_0.5_D55_316_7500_ArNeHe.fits / arc file used
# END
# wave_air           flux            err
# (A)  (erg/s/cm2/A)  (erg/s/cm2/A)
3100.18 9.928e-16 6.024e-16
3101.222 -1.522e-15 7.183e-16
3102.265 -1.833e-16 6.358e-16
3103.307 -3.417e-16 6.412e-16
3104.35 -1.427e-15 6.485e-16
3105.393 -1.393e-15 6.406e-16
3106.436 -2.939e-16 5.734e-16
3107.478 -3.507e-16 5.804e-16
3108.522 6.633e-16 5.392e-16
3109.565 1.124e-16 5.166e-16
3110.608 1.155e-15 5.459e-16
3111.651 -1.595e-16 5.465e-16
3112.694 -1.324e-16 5.073e-16
3113.738 2.288e-16 4.992e-16
3114.781 -1.916e-16 4.767e-16
3115.824 1.052e-15 4.903e-16
3116.868 -3.576e-16 5.144e-16
3117.912 -5.897e-16 5.035e-16
3118.955 -2.747e-16 4.499e-16
3119.998 4.222e-16 4.336e-16
3121.042 3.478e-16 4.583e-16
3122.087 -8.591e-16 4.738e-16
3123.131 -1.973e-19 4.27e-16
3124.174 -1.001e-15 4.658e-16
3125.218 -4.164e-16 4.384e-16
3126.262 5.071e-16 4.022e-16
3127.306 -3.814e-16 4.127e-16
3128.35 3.522e-16 3.781e-16
3129.395 4.028e-16 3.769e-16
3130.439 1.964e-16 3.607e-16
3131.483 -2.175e-16 3.864e-16
3132.528 -1.717e-16 3.579e-16
3133.573 -1.407e-17 3.51e-16
3134.617 1.553e-16 3.376e-16
3135.661 -2.482e-16 3.321e-16
3136.706 -1.371e-16 3.397e-16
3137.751 -4.69e-16 3.376e-16
3138.796 1.038e-16 3.166e-16
3139.841 8.599e-16 3.568e-16
3140.886 6.74e-16 3.158e-16
3141.931 -5.758e-17 2.973e-16
3142.976 -8.049e-16 3.18e-16
3144.021 -2.497e-17 2.971e-16
3145.066 -9.192e-17 2.799e-16
3146.112 -3.242e-16 2.816e-16
3147.157 2.331e-16 2.908e-16
3148.202 -3.243e-16 2.749e-16
3149.248 -2.831e-17 2.662e-16
3150.294 -5.324e-16 2.947e-16
3151.339 3.727e-16 2.767e-16
3152.384 -1.143e-16 2.599e-16
3153.43 4.02e-16 2.654e-16
3154.477 -2.858e-16 2.635e-16
3155.522 -8.664e-16 2.756e-16
3156.568 -4.246e-16 2.707e-16
3157.614 2.217e-16 2.645e-16
3158.66 8.812e-17 2.583e-16
3159.706 -1.754e-16 2.429e-16
3160.752 2.515e-16 2.389e-16
3161.799 -3.357e-16 2.371e-16
3162.844 5.639e-16 2.511e-16
3163.891 5.095e-16 2.472e-16
3164.937 -3.109e-16 2.348e-16
3165.984 -5.283e-16 2.36e-16
3167.03 -3.617e-16 2.23e-16
3168.077 -3.546e-16 2.141e-16
3169.124 -1.608e-16 2.136e-16
3170.171 2.851e-16 2.25e-16
3171.217 5.546e-17 2.113e-16
3172.264 1.292e-16 2.06e-16
3173.311 2.01e-16 1.958e-16
3174.358 2.403e-16 1.963e-16
3175.405 -5.263e-18 1.814e-16
3176.452 -5.576e-16 2.045e-16
3177.499 -3.427e-16 1.849e-16
3178.547 4.336e-17 1.78e-16
3179.593 7.385e-17 1.686e-16
3180.641 1.043e-16 1.784e-16
3181.689 -1.739e-16 1.642e-16
3182.735 -4.963e-17 1.682e-16
3183.783 7.789e-17 1.616e-16
3184.831 1.276e-17 1.701e-16
3185.879 -1.423e-16 1.698e-16
3186.926 -4.679e-17 1.779e-16
3187.974 2.503e-16 1.905e-16
3189.022 -1.611e-16 1.775e-16
3190.07 2.321e-16 1.991e-16
3191.117 1.679e-16 1.898e-16
3192.166 5.6e-16 2.118e-16
3193.214 -2.916e-19 1.938e-16
3194.263 -1.62e-16 1.98e-16
3195.31 -1.066e-16 2.015e-16
3196.359 -2.207e-16 2.051e-16
3197.407 -5.251e-17 2.065e-16
3198.456 1.452e-16 2.078e-16
3199.503 5.783e-16 2.304e-16
3200.552 2.023e-16 2.255e-16
3201.601 -9.738e-17 1.999e-16
3202.649 3.038e-16 2.015e-16
3203.698 -2.496e-17 1.949e-16
3204.747 4.128e-18 1.903e-16
3205.796 3.644e-16 1.96e-16
3206.844 1.611e-16 1.856e-16
3207.893 -1.598e-16 1.6e-16
3208.943 -1.311e-16 1.668e-16
3209.992 3.705e-16 1.773e-16
3211.04 -4.373e-17 1.596e-16
3212.09 2.01e-16 1.655e-16
3213.139 -2.282e-16 1.418e-16
3214.189 2.59e-16 1.594e-16
3215.237 -1.376e-16 1.51e-16
3216.287 3.841e-16 1.69e-16
3217.337 -1.773e-17 1.448e-16
3218.386 -2.796e-16 1.378e-16
3219.436 -1.013e-16 1.41e-16
3220.485 2.562e-16 1.659e-16
3221.535 4.62e-16 1.741e-16
3222.584 7.074e-17 1.618e-16
3223.635 4.92e-16 1.734e-16
3224.685 4.249e-16 1.761e-16
3225.735 -9.356e-17 1.437e-16
3226.784 1.556e-16 1.496e-16
3227.835 -3.075e-16 1.418e-16
3228.885 1.977e-16 1.491e-16
3229.935 3.086e-17 1.37e-16
3230.985 1.333e-16 1.434e-16
3232.036 2.287e-17 1.416e-16
3233.086 8.849e-17 1.368e-16
3234.136 -9.348e-18 1.365e-16
3235.187 1.228e-16 1.306e-16
3236.237 -7.447e-17 1.199e-16
3237.288 -1.428e-16 1.154e-16
3238.338 -2.868e-17 1.262e-16
3239.389 1.632e-16 1.364e-16
3240.44 -3.152e-18 1.314e-16
3241.491 5.244e-18 1.332e-16
3242.542 -8.915e-17 1.261e-16
3243.593 -1.202e-16 1.232e-16
3244.644 4.485e-16 1.541e-16
3245.695 9.717e-17 1.411e-16
3246.746 -1.525e-16 1.335e-16
3247.797 -1.148e-16 1.286e-16
3248.849 1.675e-16 1.527e-16
3249.899 -2.526e-16 1.35e-16
3250.951 3.276e-16 1.433e-16
3252.003 2.343e-16 1.446e-16
3253.055 2.998e-16 1.493e-16
3254.105 5.45e-17 1.401e-16
3255.157 1.579e-16 1.463e-16
3256.209 3.439e-17 1.257e-16
3257.261 -6.56e-17 1.329e-16
3258.312 -1.278e-16 1.286e-16
3259.364 1.915e-16 1.371e-16
3260.417 4.521e-17 1.299e-16
3261.469 1.725e-16 1.253e-16
3262.52 4.216e-17 1.28e-16
3263.572 3.082e-18 1.229e-16
3264.625 -1.499e-16 1.179e-16
3265.676 9.774e-17 1.236e-16
3266.729 1.478e-16 1.305e-16
3267.781 1.474e-16 1.271e-16
3268.834 3.191e-17 1.226e-16
3269.886 2.273e-16 1.215e-16
3270.938 -6.156e-17 1.127e-16
3271.991 5.231e-17 1.108e-16
3273.044 3.135e-16 1.213e-16
3274.096 1.029e-16 1.17e-16
3275.149 -9.959e-17 1.023e-16
3276.202 7.711e-17 1.104e-16
3277.255 9.297e-17 1.076e-16
3278.307 9.849e-17 1.04e-16
3279.361 9.732e-17 9.982e-17
3280.414 -3.538e-17 9.242e-17
3281.466 1.63e-16 1.03e-16
3282.52 -1.399e-17 9.404e-17
3283.573 1.176e-16 9.729e-17
3284.627 -1.577e-16 9.134e-17
3285.679 2.53e-17 9.352e-17
3286.733 9.063e-17 9.614e-17
3287.786 1.291e-16 9.881e-17
3288.84 2.288e-16 1.019e-16
3289.893 5.924e-18 9.698e-17
3290.947 -6.323e-17 9.061e-17
3292.001 -1.266e-16 9.938e-17
3293.055 1.209e-16 1.05e-16
3294.108 -1.044e-16 9.711e-17
3295.162 -3.95e-17 9.299e-17
3296.216 1.238e-16 1.032e-16
3297.269 6.749e-17 1.009e-16
3298.323 -1.323e-16 9.506e-17
3299.378 -7.109e-17 1.004e-16
3300.432 8.896e-17 1.001e-16
3301.485 2.128e-17 9.321e-17
3302.54 1.761e-16 1.002e-16
3303.594 -5.879e-17 9.903e-17
3304.649 -1.08e-16 8.875e-17
3305.703 -9.685e-17 8.948e-17
3306.757 5.813e-18 9.566e-17
3307.812 -1.334e-16 9.529e-17
3308.866 9.542e-17 1.011e-16
3309.921 1.225e-16 1.014e-16
3310.976 -2.388e-16 9.121e-17
3312.031 -1.82e-16 9.542e-17
3313.085 -7.507e-18 1.002e-16
3314.14 2.893e-16 1.087e-16
3315.195 7.065e-17 1.029e-16
3316.25 -3.061e-17 1.046e-16
3317.304 -5.051e-17 1.008e-16
3318.36 -1.414e-16 9.843e-17
3319.415 8.764e-17 1.017e-16
3320.47 1.337e-16 9.633e-17
3321.525 -5.022e-17 8.877e-17
3322.58 1.189e-17 9.284e-17
3323.636 -8.909e-17 8.636e-17
3324.691 1.291e-16 9.293e-17
3325.746 8.553e-18 8.662e-17
3326.802 2.494e-16 9.099e-17
3327.858 2.069e-17 8.27e-17
3328.913 -6.733e-17 7.48e-17
3329.969 1.652e-16 8.257e-17
3331.025 1.146e-16 8.356e-17
3332.081 4.237e-17 7.5e-17
3333.136 6.336e-17 7.498e-17
3334.192 -9.525e-17 6.681e-17
3335.248 -1.585e-16 6.778e-17
3336.304 2.335e-16 8.134e-17
3337.36 1.492e-17 6.847e-17
3338.416 8.151e-18 6.986e-17
3339.473 -3.233e-17 7.418e-17
3340.528 3.468e-17 7.121e-17
3341.585 2.294e-16 7.822e-17
3342.641 -8.288e-17 6.936e-17
3343.698 1.208e-16 7.864e-17
3344.754 -1.474e-16 7.022e-17
3345.81 9.82e-17 7.878e-17
3346.867 -1.329e-16 6.902e-17
3347.924 1.77e-16 7.808e-17
3348.98 3.226e-17 7.461e-17
3350.037 -1.522e-16 6.621e-17
3351.094 1.027e-16 7.821e-17
3352.15 -1.792e-16 6.649e-17
3353.207 1.252e-16 7.834e-17
3354.264 -2.742e-17 7.28e-17
3355.322 8.375e-17 7.572e-17
3356.378 2.22e-17 7.674e-17
3357.435 -4.347e-17 6.931e-17
3358.493 7.214e-17 7.047e-17
3359.55 1.117e-17 6.352e-17
3360.607 6.801e-17 6.959e-17
3361.664 2.484e-17 6.923e-17
3362.722 2.112e-17 7.304e-17
3363.778 -3.819e-17 7.205e-17
3364.836 8.351e-17 7.855e-17
3365.894 7.852e-17 7.814e-17
3366.952 2.938e-17 7.898e-17
3368.009 1.742e-16 8.035e-17
3369.067 8.964e-17 7.798e-17
3370.125 6.621e-17 7.529e-17
3371.183 9.779e-17 8.152e-17
3372.24 -8.42e-17 7.456e-17
3373.298 -1.198e-16 7.533e-17
3374.356 -2.035e-16 7.012e-17
3375.414 -1.214e-16 7.814e-17
3376.472 2.201e-17 7.9e-17
3377.53 5.391e-17 7.552e-17
3378.589 1.365e-16 7.846e-17
3379.646 9.764e-18 7.366e-17
3380.705 1.831e-17 7.409e-17
3381.763 9.92e-17 7.203e-17
3382.822 -6.939e-17 7.31e-17
3383.879 1.178e-16 7.456e-17
3384.938 6.574e-17 7.033e-17
3385.997 1.472e-16 7.552e-17
3387.056 1.065e-16 7.342e-17
3388.114 7.009e-17 7.249e-17
3389.173 4.617e-17 7.041e-17
3390.232 1.161e-16 6.813e-17
3391.29 -1.05e-17 6.39e-17
3392.349 -1.066e-16 6.221e-17
3393.408 9.677e-17 6.639e-17
3394.467 -4.104e-17 6.565e-17
3395.526 7.262e-17 6.775e-17
3396.585 -3.362e-17 6.319e-17
3397.644 -6.073e-17 5.964e-17
3398.704 1.384e-17 6.267e-17
3399.762 -2.361e-17 6.034e-17
3400.822 -5.264e-17 5.842e-17
3401.881 -2.87e-17 5.767e-17
3402.94 -9.209e-17 5.408e-17
3404.0 2.301e-17 5.434e-17
3405.059 -8.885e-17 5.332e-17
3406.119 4.397e-17 5.685e-17
3407.178 6.313e-17 5.691e-17
3408.238 -3.37e-17 5.415e-17
3409.298 3.537e-17 5.704e-17
3410.358 -1.181e-17 5.388e-17
3411.417 -1.924e-17 5.403e-17
3412.477 1.37e-17 5.262e-17
3413.537 -5.571e-18 5.028e-17
3414.597 5.178e-17 5.535e-17
3415.657 1.146e-16 5.764e-17
3416.717 1.142e-16 5.831e-17
3417.777 -5.556e-17 5.391e-17
3418.837 -1.288e-18 5.916e-17
3419.897 -7.407e-17 5.389e-17
3420.958 1.113e-16 5.981e-17
3422.018 1.117e-16 5.798e-17
3423.078 2.892e-17 5.641e-17
3424.139 -6.485e-17 5.536e-17
3425.199 1.884e-17 5.59e-17
3426.26 -8.118e-18 5.631e-17
3427.32 7.705e-17 6.04e-17
3428.381 6.071e-17 6.018e-17
3429.442 4.57e-17 5.808e-17
3430.502 6.346e-17 5.956e-17
3431.563 -7.303e-17 5.667e-17
3432.624 1.091e-16 6.293e-17
3433.685 -3.839e-17 5.864e-17
3434.745 -9.027e-18 6.065e-17
3435.807 1.306e-16 6.311e-17
3436.868 -8.521e-17 5.43e-17
3437.929 1.745e-16 6.21e-17
3438.99 -5.085e-17 5.49e-17
3440.051 -4.535e-18 5.673e-17
3441.112 5.536e-17 5.577e-17
3442.173 -6.29e-18 5.724e-17
3443.235 2.21e-18 5.702e-17
3444.296 2.445e-17 6.045e-17
3445.358 6.042e-17 6.026e-17
3446.419 -2.676e-17 6.081e-17
3447.48 -2.53e-17 5.93e-17
3448.542 -9.266e-17 6.181e-17
3449.604 5.064e-17 6.559e-17
3450.665 7.792e-17 6.298e-17
3451.727 7.844e-17 6.471e-17
3452.789 3.474e-17 6.454e-17
3453.85 2.816e-17 6.392e-17
3454.912 -3.436e-17 6.033e-17
3455.975 5.855e-17 5.975e-17
3457.037 5.375e-17 5.956e-17
3458.098 5.441e-17 5.872e-17
3459.161 4.44e-17 5.651e-17
3460.223 1.33e-17 5.481e-17
3461.285 -5.731e-17 5.13e-17
3462.347 6.818e-20 5.354e-17
3463.409 1.285e-17 5.355e-17
3464.472 3.536e-19 5.211e-17
3465.534 5.884e-19 5.219e-17
3466.596 -2.197e-18 5.125e-17
3467.659 -2.728e-17 4.936e-17
3468.722 -5.248e-17 4.874e-17
3469.784 3.17e-18 4.985e-17
3470.847 5.402e-17 5.051e-17
3471.91 3.105e-17 4.85e-17
3472.973 -9.585e-18 4.641e-17
3474.035 3.111e-17 4.628e-17
3475.098 5.517e-17 4.662e-17
3476.161 -8.75e-17 4.357e-17
3477.223 1.109e-17 4.998e-17
3478.286 1.159e-16 5.467e-17
3479.35 -4.404e-17 5.013e-17
3480.413 3.024e-17 5.203e-17
3481.475 6.557e-17 5.416e-17
3482.539 -8.853e-17 4.794e-17
3483.602 2.087e-17 5.11e-17
3484.666 -1.334e-17 4.949e-17
3485.728 4.395e-17 5.165e-17
3486.792 -1.658e-17 5.032e-17
3487.856 -6.931e-17 4.791e-17
3488.918 -8.313e-17 4.743e-17
3489.982 3.239e-17 4.986e-17
3491.046 -4.002e-17 4.868e-17
3492.11 -1.013e-16 4.723e-17
3493.173 -8.17e-17 4.763e-17
3494.237 8.917e-18 4.962e-17
3495.301 6.243e-17 5.068e-17
3496.365 1.361e-17 4.875e-17
3497.428 -1.028e-16 4.628e-17
3498.492 -2.548e-17 4.988e-17
3499.556 8.949e-17 5.203e-17
3500.62 4.222e-17 5.24e-17
3501.684 -1.664e-17 5.03e-17
3502.748 7.527e-17 5.345e-17
3503.813 3.046e-17 5.142e-17
3504.876 -1.213e-16 4.513e-17
3505.941 1.017e-16 4.98e-17
3507.005 -9.758e-18 4.859e-17
3508.07 2.391e-17 4.814e-17
3509.133 -1.177e-16 4.395e-17
3510.198 2.077e-17 4.71e-17
3511.263 2.488e-17 4.456e-17
3512.327 4.878e-18 4.57e-17
3513.391 -2.953e-17 4.343e-17
3514.456 -2.042e-17 4.589e-17
3515.521 1.811e-17 4.509e-17
3516.585 8.46e-17 4.759e-17
3517.65 8.513e-17 4.709e-17
3518.715 -1.994e-17 4.242e-17
3519.78 3.424e-17 4.289e-17
3520.845 7.621e-17 4.212e-17
3521.91 6.199e-17 4.049e-17
3522.975 4.172e-17 3.988e-17
3524.039 1.284e-17 3.814e-17
3525.105 5.288e-17 3.871e-17
3526.17 -2.485e-17 3.769e-17
3527.236 9.885e-17 4.098e-17
3528.3 1.088e-16 4.256e-17
3529.366 -4.64e-17 3.638e-17
3530.431 -6.309e-17 3.688e-17
3531.497 -2.744e-17 3.781e-17
3532.562 6.775e-18 3.869e-17
3533.627 2.16e-17 3.857e-17
3534.693 5.133e-17 4e-17
3535.758 -3.685e-17 3.8e-17
3536.824 -8.938e-18 3.827e-17
3537.89 2.008e-17 4.063e-17
3538.956 -1.028e-17 4.095e-17
3540.021 6.611e-17 4.22e-17
3541.087 2.369e-17 4.316e-17
3542.153 6.218e-17 4.45e-17
3543.218 -5.997e-17 4.159e-17
3544.284 -5.136e-17 4.033e-17
3545.35 -3.462e-17 4.365e-17
3546.417 -6.403e-17 4.113e-17
3547.482 1.176e-17 4.406e-17
3548.548 -5.184e-18 4.34e-17
3549.615 -1.091e-17 4.295e-17
3550.681 6.774e-17 4.548e-17
3551.747 -7.089e-17 4.159e-17
3552.813 -5.836e-17 4.184e-17
3553.88 8.815e-18 4.474e-17
3554.946 -4.075e-18 4.409e-17
3556.012 -3.418e-17 4.205e-17
3557.079 -1.322e-17 4.468e-17
3558.146 6.769e-17 4.598e-17
3559.212 -6.323e-17 4.232e-17
3560.279 7.707e-17 4.682e-17
3561.346 1.787e-17 4.673e-17
3562.413 9.908e-17 4.625e-17
3563.479 1.08e-16 4.553e-17
3564.546 1.067e-16 4.329e-17
3565.613 7.238e-17 4.185e-17
3566.679 3.694e-17 4.156e-17
3567.746 7.522e-18 3.988e-17
3568.813 -5.75e-18 4.018e-17
3569.881 -3.877e-17 3.788e-17
3570.947 3.718e-17 4.221e-17
3572.014 -5.982e-17 3.78e-17
3573.082 4.151e-17 4.244e-17
3574.149 -1.887e-17 4e-17
3575.216 2.029e-18 4.03e-17
3576.283 3.21e-17 4.115e-17
3577.351 2.394e-17 3.966e-17
3578.418 -5.476e-17 3.629e-17
3579.485 1.088e-16 3.851e-17
3580.553 3.689e-17 3.612e-17
3581.621 7.757e-17 3.725e-17
3582.688 1.864e-17 3.516e-17
3583.756 -2.968e-17 3.275e-17
3584.823 3.527e-18 3.367e-17
3585.891 4.657e-17 3.49e-17
3586.958 8.829e-17 3.682e-17
3588.026 -7.757e-18 3.609e-17
3589.095 1.466e-17 3.622e-17
3590.162 -1.045e-17 3.66e-17
3591.23 -3.846e-18 3.607e-17
3592.298 7.628e-17 3.711e-17
3593.366 4.682e-17 3.8e-17
3594.434 -3.522e-17 3.657e-17
3595.502 7.974e-17 3.942e-17
3596.571 1.849e-18 3.77e-17
3597.638 -3.245e-18 3.793e-17
3598.706 -3.641e-17 3.48e-17
3599.775 6.009e-17 3.654e-17
3600.844 -2.525e-17 3.435e-17
3601.911 -2.689e-18 3.327e-17
3602.98 8.128e-17 3.499e-17
3604.049 -6.363e-17 3.057e-17
3605.117 2.809e-17 3.27e-17
3606.185 2.124e-17 3.14e-17
3607.254 1.574e-17 3.046e-17
3608.323 -2.108e-17 2.837e-17
3609.391 4.271e-17 3.141e-17
3610.46 7.283e-17 3.192e-17
3611.529 6.61e-18 3.202e-17
3612.598 8.597e-18 3.188e-17
3613.666 5.32e-17 3.469e-17
3614.735 5.26e-17 3.389e-17
3615.804 2.719e-17 3.283e-17
3616.874 5.818e-17 3.406e-17
3617.942 -1.323e-17 3.007e-17
3619.011 1.746e-17 3.262e-17
3620.081 -1.723e-18 3.339e-17
3621.149 -2.072e-17 3.313e-17
3622.218 1.484e-17 3.49e-17
3623.288 1.105e-17 3.574e-17
3624.357 8.954e-17 3.768e-17
3625.426 1.698e-17 3.743e-17
3626.496 -1.615e-18 3.627e-17
3627.565 1.683e-17 3.652e-17
3628.634 -2.101e-17 3.597e-17
3629.704 7.239e-17 3.696e-17
3630.774 -1.806e-17 3.436e-17
3631.843 8.343e-17 3.72e-17
3632.912 -8.228e-18 3.544e-17
3633.982 -6.507e-17 3.426e-17
3635.052 3.196e-17 3.715e-17
3636.122 1.331e-17 3.742e-17
3637.191 -3.828e-17 3.66e-17
3638.261 -3.633e-18 3.748e-17
3639.332 2.356e-17 3.84e-17
3640.401 -3.342e-17 3.664e-17
3641.471 1.636e-17 3.811e-17
3642.541 1.393e-16 3.889e-17
3643.611 5.168e-17 3.732e-17
3644.681 -1.482e-17 3.557e-17
3645.751 1.485e-17 3.542e-17
3646.822 2.655e-17 3.796e-17
3647.892 1.065e-16 4e-17
3648.962 5.286e-17 4.083e-17
3650.032 -2.21e-17 3.989e-17
3651.103 2.684e-17 3.986e-17
3652.172 1.693e-17 4.026e-17
3653.243 4.895e-17 4.036e-17
3654.314 2.826e-17 3.965e-17
3655.385 -6.384e-18 3.771e-17
3656.454 -2.897e-17 3.768e-17
3657.525 1.097e-17 3.802e-17
3658.596 1.434e-17 3.705e-17
3659.666 -1.278e-17 3.758e-17
3660.737 5.008e-17 3.764e-17
3661.808 3.811e-17 3.804e-17
3662.879 -1.242e-17 3.674e-17
3663.949 8.208e-17 3.661e-17
3665.02 1.313e-16 3.726e-17
3666.092 -2.484e-17 3.429e-17
3667.163 5.43e-18 3.302e-17
3668.233 1.142e-17 3.238e-17
3669.304 5.986e-17 3.344e-17
3670.376 6.113e-17 3.396e-17
3671.446 3.989e-17 3.357e-17
3672.517 5.493e-17 3.399e-17
3673.589 -1.756e-17 3.231e-17
3674.66 1.866e-17 3.173e-17
3675.731 3.881e-17 3.087e-17
3676.803 3.686e-18 2.953e-17
3677.874 1.025e-16 3.136e-17
3678.945 2.533e-17 2.9e-17
3680.017 4.741e-17 2.995e-17
3681.088 4.508e-17 3.054e-17
3682.16 2.241e-17 2.929e-17
3683.231 -3.934e-17 2.828e-17
3684.303 -3.557e-18 2.834e-17
3685.375 3.634e-17 2.917e-17
3686.447 1.402e-17 2.794e-17
3687.518 2.495e-17 2.865e-17
3688.59 -3.503e-17 2.876e-17
3689.662 -3.901e-18 2.984e-17
3690.733 3.553e-17 3.122e-17
3691.805 2.547e-17 3.083e-17
3692.877 -3.535e-17 2.945e-17
3693.949 3.838e-17 3.042e-17
3695.021 -9.796e-18 2.998e-17
3696.093 -3.389e-18 3.077e-17
3697.165 -1.164e-17 3.132e-17
3698.237 -6.542e-18 3.143e-17
3699.309 6.13e-17 3.31e-17
3700.382 4.202e-17 3.199e-17
3701.454 6.519e-17 3.282e-17
3702.526 2.406e-17 3.029e-17
3703.598 5.698e-17 3.082e-17
3704.671 3.058e-17 2.961e-17
3705.744 -4.789e-17 2.76e-17
3706.815 -2.234e-17 2.896e-17
3707.888 3.757e-17 2.984e-17
3708.961 8.773e-18 2.987e-17
3710.033 3.412e-17 3.116e-17
3711.106 -4.35e-17 3.161e-17
3712.179 -1.509e-18 3.232e-17
3713.251 1.179e-17 3.297e-17
3714.323 -1.437e-17 3.273e-17
3715.396 -3.551e-17 3.112e-17
3716.47 4.253e-17 3.213e-17
3717.542 3.472e-17 3.113e-17
3718.615 7.829e-17 3.059e-17
3719.688 -1.913e-18 2.803e-17
3720.761 1.187e-16 3.093e-17
3721.833 -1.772e-18 2.94e-17
3722.907 -2.043e-17 3.024e-17
3723.98 7.491e-17 3.358e-17
3725.053 4.664e-18 3.131e-17
3726.126 4.195e-17 3.224e-17
3727.199 -2.01e-17 3.208e-17
3728.273 2.03e-17 3.227e-17
3729.345 5.669e-17 3.287e-17
3730.419 8.398e-18 3.18e-17
3731.492 5.388e-17 3.116e-17
3732.566 7.483e-18 2.844e-17
3733.639 6.298e-17 2.941e-17
3734.713 3.728e-17 2.886e-17
3735.786 1.53e-17 2.883e-17
3736.859 7.74e-17 3.105e-17
3737.933 4.362e-17 3.217e-17
3739.007 4.039e-17 3.381e-17
3740.081 7.535e-17 3.309e-17
3741.154 7.95e-17 3.305e-17
3742.228 7.855e-17 3.241e-17
3743.302 8.874e-17 3.045e-17
3744.376 3.227e-17 2.916e-17
3745.449 5.332e-17 2.882e-17
3746.523 1.531e-17 2.768e-17
3747.597 -5.438e-17 2.439e-17
3748.67 -6.92e-18 2.734e-17
3749.745 3.829e-17 2.905e-17
3750.819 -6.526e-17 2.879e-17
3751.893 4.283e-17 3.066e-17
3752.967 3.347e-17 3.107e-17
3754.041 -1.571e-17 3.006e-17
3755.115 -1.966e-17 2.912e-17
3756.189 -4.505e-17 2.707e-17
3757.263 2.204e-17 2.708e-17
3758.338 4.913e-17 2.816e-17
3759.413 1.997e-17 2.769e-17
3760.486 7.148e-17 2.951e-17
3761.561 4.255e-17 2.771e-17
3762.636 -3.496e-17 2.685e-17
3763.71 8.419e-18 2.745e-17
3764.784 3.471e-17 2.803e-17
3765.859 2.178e-17 2.706e-17
3766.934 3.52e-17 2.697e-17
3768.008 4.355e-17 2.689e-17
3769.083 5.884e-17 2.779e-17
3770.157 9.986e-17 2.86e-17
3771.232 5.882e-17 2.858e-17
3772.306 2.541e-17 2.865e-17
3773.382 -1.459e-17 2.813e-17
3774.457 4.98e-17 2.898e-17
3775.531 6.269e-17 2.852e-17
3776.606 2.098e-17 2.831e-17
3777.681 3.037e-17 2.807e-17
3778.756 2.372e-18 2.818e-17
3779.831 -1.661e-17 2.736e-17
3780.906 2.047e-17 2.81e-17
3781.981 3.976e-17 2.83e-17
3783.056 -3.738e-17 2.685e-17
3784.131 5.628e-17 2.793e-17
3785.207 2.243e-17 2.691e-17
3786.282 5.275e-17 2.637e-17
3787.357 7.893e-17 2.606e-17
3788.432 3.06e-17 2.565e-17
3789.508 4.128e-17 2.595e-17
3790.584 1.419e-17 2.582e-17
3791.658 -1.516e-17 2.415e-17
3792.734 -9.684e-18 2.445e-17
3793.81 6.98e-17 2.576e-17
3794.885 2.446e-17 2.378e-17
3795.96 3.588e-17 2.424e-17
3797.036 1.028e-17 2.337e-17
3798.112 3.989e-17 2.376e-17
3799.187 3.644e-17 2.45e-17
3800.263 6.059e-17 2.572e-17
3801.339 -3.953e-17 2.43e-17
3802.414 -2.959e-18 2.55e-17
3803.49 2.718e-17 2.634e-17
3804.566 3.856e-17 2.612e-17
3805.642 -6.29e-18 2.474e-17
3806.718 3.535e-17 2.608e-17
3807.794 5.137e-17 2.633e-17
3808.87 3.754e-17 2.683e-17
3809.946 5.069e-18 2.568e-17
3811.022 4.108e-17 2.604e-17
3812.098 -1.548e-17 2.444e-17
3813.174 2.674e-17 2.396e-17
3814.25 2.154e-17 2.369e-17
3815.326 5.609e-17 2.449e-17
3816.403 1.161e-17 2.327e-17
3817.479 7.024e-17 2.473e-17
3818.555 1.735e-17 2.285e-17
3819.632 3.01e-17 2.28e-17
3820.708 -9.516e-18 2.175e-17
3821.784 2.118e-17 2.249e-17
3822.861 -9.683e-18 2.172e-17
3823.937 -8.558e-18 2.081e-17
3825.014 1.174e-17 2.072e-17
3826.09 2.873e-17 2.177e-17
3827.167 5.321e-17 2.293e-17
3828.244 3.869e-17 2.305e-17
3829.319 2.767e-17 2.273e-17
3830.396 -1.303e-17 2.156e-17
3831.473 1.274e-17 2.192e-17
3832.55 -3.589e-17 2.093e-17
3833.626 1.466e-17 2.169e-17
3834.704 7.903e-18 2.137e-17
3835.781 4.449e-17 2.229e-17
3836.858 -1.355e-17 2.108e-17
3837.934 4.46e-17 2.262e-17
3839.011 4.662e-17 2.25e-17
3840.088 -1.403e-17 2.198e-17
3841.165 -1.643e-17 2.36e-17
3842.242 2.964e-17 2.491e-17
3843.319 2.564e-17 2.479e-17
3844.397 5.759e-18 2.441e-17
3845.473 -2.151e-17 2.383e-17
3846.551 2.804e-17 2.451e-17
3847.628 3.11e-17 2.44e-17
3848.705 7.836e-17 2.5e-17
3849.782 7.071e-17 2.397e-17
3850.86 -6.206e-18 2.346e-17
3851.937 4.666e-17 2.475e-17
3853.014 8.864e-18 2.284e-17
3854.092 1.005e-17 2.33e-17
3855.17 2.082e-17 2.226e-17
3856.246 5.956e-18 2.169e-17
3857.324 1.805e-17 2.19e-17
3858.402 6.043e-17 2.162e-17
3859.48 2.232e-17 2.197e-17
3860.557 1.204e-17 2.255e-17
3861.635 4.404e-17 2.421e-17
3862.713 3.651e-17 2.477e-17
3863.789 -1.985e-17 2.332e-17
3864.868 3.679e-17 2.356e-17
3865.946 6.396e-17 2.431e-17
3867.024 5.846e-17 2.396e-17
3868.101 4.894e-17 2.352e-17
3869.179 3.799e-17 2.23e-17
3870.257 -3.407e-17 2.074e-17
3871.335 4.535e-18 2.187e-17
3872.413 -2.698e-17 2.172e-17
3873.491 4.043e-17 2.423e-17
3874.569 2.565e-17 2.38e-17
3875.646 2.051e-17 2.301e-17
3876.725 4.108e-17 2.243e-17
3877.803 4.218e-17 2.166e-17
3878.882 1.871e-17 2.183e-17
3879.959 3.762e-17 2.217e-17
3881.038 2.886e-17 2.156e-17
3882.116 4.716e-18 2.121e-17
3883.194 2.412e-18 2.144e-17
3884.272 -5.713e-18 2.139e-17
3885.351 4.084e-17 2.104e-17
3886.43 2.285e-17 2.084e-17
3887.507 6.259e-17 2.142e-17
3888.586 3.249e-17 2.144e-17
3889.665 2.802e-17 2.203e-17
3890.743 2.025e-17 2.207e-17
3891.822 1.443e-17 2.253e-17
3892.9 1.576e-17 2.216e-17
3893.979 4.654e-17 2.286e-17
3895.057 5.309e-17 2.311e-17
3896.136 2.114e-18 2.265e-17
3897.215 -4.428e-18 2.217e-17
3898.294 -1.419e-17 2.211e-17
3899.372 3.392e-18 2.241e-17
3900.451 -8.945e-18 2.168e-17
3901.53 2.257e-17 2.192e-17
3902.608 -1.313e-17 2.178e-17
3903.688 2.07e-17 2.172e-17
3904.767 7.199e-17 2.303e-17
3905.846 4.077e-17 2.317e-17
3906.924 5.632e-17 2.453e-17
3908.004 5.708e-17 2.436e-17
3909.083 2.347e-17 2.399e-17
3910.161 2.091e-17 2.433e-17
3911.241 2.463e-18 2.497e-17
3912.32 5.302e-17 2.579e-17
3913.4 4.534e-17 2.489e-17
3914.478 7.705e-17 2.466e-17
3915.558 3.157e-17 2.263e-17
3916.637 1.999e-17 2.228e-17
3917.716 2.532e-17 2.167e-17
3918.795 4.3e-17 2.14e-17
3919.875 6.856e-17 2.152e-17
3920.955 1.122e-17 1.996e-17
3922.033 4.708e-17 2.079e-17
3923.113 2.301e-17 2.053e-17
3924.193 -6.394e-18 1.948e-17
3925.272 4.235e-17 1.962e-17
3926.351 3.799e-17 1.927e-17
3927.431 2.958e-17 1.807e-17
3928.511 -1.815e-17 1.629e-17
3929.59 4.578e-17 1.691e-17
3930.67 2.702e-17 1.568e-17
3931.75 3.711e-17 1.594e-17
3932.83 4.658e-17 1.594e-17
3933.909 1.418e-17 1.571e-17
3934.989 5.456e-17 1.668e-17
3936.069 2.021e-17 1.668e-17
3937.148 9.238e-18 1.812e-17
3938.228 4.754e-17 1.94e-17
3939.309 3.46e-17 1.997e-17
3940.389 4.086e-17 2.006e-17
3941.468 3.002e-17 2.016e-17
3942.548 -8.07e-18 1.917e-17
3943.628 5.172e-17 2.097e-17
3944.708 -1.226e-17 2.012e-17
3945.788 3.204e-17 2.175e-17
3946.869 1.126e-17 2.162e-17
3947.949 4.386e-17 2.207e-17
3949.028 1.178e-18 2.184e-17
3950.109 4.212e-17 2.207e-17
3951.189 7.217e-17 2.289e-17
3952.269 5.533e-17 2.205e-17
3953.349 -1.424e-18 2.149e-17
3954.43 3.219e-17 2.196e-17
3955.511 -3.366e-17 2.001e-17
3956.59 3.823e-17 2.23e-17
3957.671 9.844e-17 2.284e-17
3958.752 6.074e-18 2.062e-17
3959.831 2.616e-17 2e-17
3960.912 -1.075e-17 1.883e-17
3961.993 7.635e-18 1.892e-17
3963.074 3.081e-17 1.808e-17
3964.154 -4.5e-18 1.664e-17
3965.234 1.797e-17 1.606e-17
3966.315 1.496e-17 1.536e-17
3967.395 3.739e-17 1.565e-17
3968.476 3.214e-17 1.533e-17
3969.557 5.75e-17 1.629e-17
3970.638 8.309e-17 1.821e-17
3971.718 7.671e-17 1.858e-17
3972.799 4.527e-17 1.841e-17
3973.881 3.971e-17 1.955e-17
3974.962 1.066e-17 1.98e-17
3976.042 1.283e-17 2.079e-17
3977.123 -4.642e-18 2.086e-17
3978.204 2.094e-17 2.121e-17
3979.284 5.428e-17 2.192e-17
3980.366 3.865e-17 2.203e-17
3981.447 3.921e-17 2.197e-17
3982.528 2.574e-17 2.129e-17
3983.609 2.343e-17 2.152e-17
3984.69 2.817e-17 2.139e-17
3985.771 3.129e-17 2.206e-17
3986.852 5.386e-17 2.217e-17
3987.933 5.143e-17 2.288e-17
3989.015 3.278e-17 2.234e-17
3990.096 3.171e-17 2.316e-17
3991.177 4.795e-17 2.33e-17
3992.259 4.379e-17 2.32e-17
3993.34 5.493e-17 2.356e-17
3994.421 8.767e-18 2.244e-17
3995.502 8.333e-17 2.366e-17
3996.584 5.364e-17 2.351e-17
3997.666 7.32e-17 2.389e-17
3998.747 8.803e-17 2.451e-17
3999.828 4.503e-17 2.38e-17
4000.91 1.875e-17 2.348e-17
4001.991 6.532e-17 2.427e-17
4003.073 4.307e-17 2.346e-17
4004.155 2.352e-17 2.245e-17
4005.237 3.155e-17 2.246e-17
4006.317 7.431e-17 2.412e-17
4007.399 3.245e-17 2.396e-17
4008.481 2.668e-17 2.375e-17
4009.562 3.591e-17 2.442e-17
4010.644 1.088e-17 2.37e-17
4011.727 2.242e-17 2.401e-17
4012.809 2.678e-17 2.387e-17
4013.89 5.527e-17 2.371e-17
4014.972 5.715e-17 2.376e-17
4016.054 5.864e-17 2.409e-17
4017.135 5.972e-17 2.403e-17
4018.217 1.539e-17 2.371e-17
4019.3 2.605e-17 2.421e-17
4020.382 9.667e-17 2.512e-17
4021.463 -1.585e-17 2.31e-17
4022.546 2.923e-17 2.36e-17
4023.628 1.396e-17 2.302e-17
4024.71 5.287e-17 2.394e-17
4025.792 2.873e-17 2.316e-17
4026.874 1.536e-17 2.354e-17
4027.957 1.825e-17 2.35e-17
4029.038 4.096e-17 2.233e-17
4030.121 4.261e-17 2.184e-17
4031.203 3.331e-17 2.173e-17
4032.286 3.921e-17 2.195e-17
4033.367 2.451e-17 2.156e-17
4034.45 -1.469e-17 2.173e-17
4035.533 -1.96e-17 2.17e-17
4036.614 7.308e-17 2.374e-17
4037.697 2.975e-17 2.338e-17
4038.78 4.325e-17 2.302e-17
4039.862 5.51e-18 2.261e-17
4040.944 2.607e-17 2.3e-17
4042.027 1.332e-17 2.243e-17
4043.11 5.857e-17 2.407e-17
4044.192 3.631e-18 2.42e-17
4045.274 3.005e-17 2.649e-17
4046.357 6.518e-17 2.654e-17
4047.44 6.171e-17 2.583e-17
4048.522 -3.655e-17 2.326e-17
4049.605 5.847e-17 2.365e-17
4050.688 6.487e-17 2.353e-17
4051.77 1.885e-17 2.199e-17
4052.853 6.669e-17 2.226e-17
4053.936 1.479e-17 2.175e-17
4055.019 4.464e-17 2.198e-17
4056.102 6.303e-17 2.154e-17
4057.185 7.583e-17 2.238e-17
4058.268 6.995e-17 2.264e-17
4059.35 3.097e-18 2.172e-17
4060.433 2.417e-17 2.179e-17
4061.517 3.519e-17 2.111e-17
4062.6 2.541e-17 2.072e-17
4063.682 3.372e-17 2.148e-17
4064.765 4.002e-17 2.14e-17
4065.849 5.94e-17 2.186e-17
4066.931 7.612e-17 2.249e-17
4068.014 7.283e-17 2.221e-17
4069.098 7.015e-18 2.09e-17
4070.181 -1.177e-17 2.053e-17
4071.264 4.484e-17 2.12e-17
4072.347 3.615e-17 2.135e-17
4073.431 7.141e-17 2.176e-17
4074.513 2.389e-17 2.115e-17
4075.597 5.196e-17 2.14e-17
4076.68 3.604e-17 2.134e-17
4077.764 6.65e-17 2.179e-17
4078.847 5.134e-17 2.201e-17
4079.93 4.406e-17 2.182e-17
4081.014 2.695e-17 2.159e-17
4082.098 5.229e-17 2.14e-17
4083.18 7.383e-17 2.194e-17
4084.264 8.733e-17 2.213e-17
4085.348 2.26e-17 2.13e-17
4086.431 -5.473e-19 2.096e-17
4087.515 4.382e-17 2.211e-17
4088.598 3.021e-17 2.141e-17
4089.682 4.003e-17 2.134e-17
4090.765 6.304e-17 2.163e-17
4091.849 5.556e-17 2.131e-17
4092.933 4.761e-17 2.119e-17
4094.016 1.132e-16 2.186e-17
4095.1 2.35e-17 2.029e-17
4096.184 3.712e-17 2.072e-17
4097.268 5.139e-17 2.039e-17
4098.351 1.366e-18 1.92e-17
4099.435 4.341e-17 1.917e-17
4100.519 2.405e-17 1.878e-17
4101.602 8.159e-17 1.993e-17
4102.687 1.722e-17 1.93e-17
4103.771 1.181e-17 1.981e-17
4104.855 2.034e-17 2.019e-17
4105.938 5.463e-17 2.132e-17
4107.022 6.203e-17 2.113e-17
4108.107 2.928e-17 2.078e-17
4109.19 6.016e-18 2.101e-17
4110.274 -2.952e-17 2.001e-17
4111.358 3.53e-17 2.123e-17
4112.443 -1.368e-17 2.045e-17
4113.526 6.884e-17 2.216e-17
4114.611 5.16e-17 2.181e-17
4115.695 2.491e-17 2.13e-17
4116.778 3.37e-17 2.125e-17
4117.863 7.587e-18 2.063e-17
4118.947 6.027e-17 2.16e-17
4120.032 4.465e-17 2.069e-17
4121.115 7.358e-17 2.188e-17
4122.2 2.408e-17 2.071e-17
4123.285 4.58e-17 2.168e-17
4124.368 2.785e-17 2.117e-17
4125.453 3.96e-17 2.112e-17
4126.537 3.692e-17 2.073e-17
4127.622 4.439e-17 2.118e-17
4128.706 2.121e-17 2.009e-17
4129.79 3.945e-17 2.039e-17
4130.875 4.577e-17 2.055e-17
4131.959 5.381e-17 2.064e-17
4133.044 5.829e-17 2.064e-17
4134.128 2.725e-17 2.066e-17
4135.213 1.001e-16 2.167e-17
4136.297 2.636e-17 2.089e-17
4137.382 3.157e-17 2.114e-17
4138.467 -1.298e-17 2.04e-17
4139.551 5.015e-17 2.121e-17
4140.636 3.976e-17 2.059e-17
4141.721 3.42e-17 1.987e-17
4142.806 5.049e-17 2.007e-17
4143.89 9.555e-17 2.102e-17
4144.975 3.849e-17 2.043e-17
4146.06 4.779e-17 2.047e-17
4147.144 4.137e-17 2.026e-17
4148.229 -1.949e-17 1.933e-17
4149.314 2.359e-17 2.02e-17
4150.399 4.548e-17 2.065e-17
4151.483 1.071e-16 2.129e-17
4152.568 5.306e-17 2.066e-17
4153.653 1.319e-17 1.977e-17
4154.738 4.431e-18 1.962e-17
4155.823 4.74e-17 2.019e-17
4156.908 3.559e-17 2.031e-17
4157.993 5.893e-17 2.094e-17
4159.077 3.88e-17 2.06e-17
4160.163 2.129e-17 2.093e-17
4161.248 4.181e-17 2.102e-17
4162.332 6.954e-17 2.171e-17
4163.418 1.697e-17 2.095e-17
4164.503 5.933e-17 2.109e-17
4165.589 3.674e-17 2.079e-17
4166.673 5.379e-17 2.077e-17
4167.758 2.244e-17 1.993e-17
4168.844 4.812e-17 2.035e-17
4169.928 3.794e-17 2.027e-17
4171.014 4.105e-17 1.96e-17
4172.099 3.932e-17 1.943e-17
4173.185 2.172e-17 1.931e-17
4174.269 9.843e-19 1.903e-17
4175.355 3.371e-17 1.926e-17
4176.441 5.541e-17 2.012e-17
4177.525 2.762e-17 1.965e-17
4178.611 2.009e-17 1.939e-17
4179.697 1.344e-17 1.931e-17
4180.782 6.448e-17 1.983e-17
4181.867 8.434e-18 1.912e-17
4182.953 2.353e-17 1.949e-17
4184.038 3.727e-17 1.913e-17
4185.124 -1.164e-18 1.849e-17
4186.209 1.774e-17 1.885e-17
4187.295 3.577e-17 1.933e-17
4188.38 -9.468e-18 1.874e-17
4189.465 4.73e-17 1.981e-17
4190.551 1.224e-16 2.099e-17
4191.637 2.482e-17 1.994e-17
4192.723 6.727e-17 2.002e-17
4193.808 8.558e-17 2.074e-17
4194.894 5.687e-17 1.995e-17
4195.98 2.116e-17 1.949e-17
4197.065 3.375e-17 1.9e-17
4198.151 6.317e-17 1.965e-17
4199.237 5.503e-17 1.948e-17
4200.323 5.036e-17 1.956e-17
4201.408 1.062e-17 1.905e-17
4202.494 5.951e-17 2.012e-17
4203.58 4.21e-17 1.996e-17
4204.665 2.428e-17 2.026e-17
4205.751 3.944e-17 2.024e-17
4206.837 5.128e-17 2.057e-17
4207.923 4.137e-17 2.062e-17
4209.009 7.795e-17 2.112e-17
4210.095 7.749e-17 2.098e-17
4211.181 3.468e-17 2.034e-17
4212.266 5.106e-17 2.059e-17
4213.352 9.526e-17 2.118e-17
4214.439 -1.518e-17 1.936e-17
4215.525 3.842e-17 2.023e-17
4216.61 5.176e-17 2.046e-17
4217.697 -2.632e-18 1.979e-17
4218.783 4.135e-17 2.039e-17
4219.868 3.68e-17 2.046e-17
4220.955 2.316e-17 1.997e-17
4222.041 4.54e-17 2.006e-17
4223.127 -5.811e-18 1.877e-17
4224.213 3.95e-18 1.769e-17
4225.299 6.467e-17 1.85e-17
4226.386 1.723e-17 1.812e-17
4227.471 3.455e-17 1.922e-17
4228.558 6.049e-17 2.02e-17
4229.644 4.912e-17 2.067e-17
4230.731 2.886e-17 2.027e-17
4231.816 2.113e-17 1.994e-17
4232.903 6.319e-17 2.021e-17
4233.989 4.863e-17 2.014e-17
4235.075 5.133e-17 1.963e-17
4236.162 4.423e-17 1.981e-17
4237.248 2.617e-17 1.979e-17
4238.335 6.393e-17 2.017e-17
4239.421 3.008e-17 2.017e-17
4240.507 1.555e-17 1.952e-17
4241.594 1.662e-17 2.029e-17
4242.68 5.141e-17 2.03e-17
4243.766 4.145e-17 2.079e-17
4244.853 9.551e-17 2.158e-17
4245.94 6.975e-17 2.13e-17
4247.026 1.843e-17 1.984e-17
4248.113 7.426e-17 2.042e-17
4249.199 5.032e-19 1.919e-17
4250.285 5.176e-17 1.96e-17
4251.372 3.528e-17 1.982e-17
4252.459 3.289e-18 1.938e-17
4253.546 4.245e-17 1.973e-17
4254.632 3.671e-17 1.97e-17
4255.719 1.078e-17 1.948e-17
4256.806 5.531e-18 1.913e-17
4257.892 2.209e-17 1.869e-17
4258.979 -2.062e-17 1.783e-17
4260.066 1.165e-17 1.818e-17
4261.153 1.674e-17 1.859e-17
4262.239 6.757e-17 1.97e-17
4263.326 1.191e-17 1.911e-17
4264.413 1.492e-17 1.928e-17
4265.499 4.709e-17 1.939e-17
4266.586 3.405e-17 1.88e-17
4267.673 9.246e-17 1.948e-17
4268.76 5.111e-17 1.838e-17
4269.846 2.204e-17 1.731e-17
4270.933 7.721e-17 1.801e-17
4272.02 5.523e-17 1.798e-17
4273.107 4.246e-17 1.78e-17
4274.194 5.329e-17 1.816e-17
4275.281 4.276e-17 1.856e-17
4276.368 5.415e-17 1.916e-17
4277.455 7.341e-17 1.918e-17
4278.542 4.837e-17 1.88e-17
4279.629 7.592e-17 1.885e-17
4280.715 4.655e-17 1.869e-17
4281.803 4.019e-17 1.87e-17
4282.89 7.66e-17 1.874e-17
4283.977 6.667e-17 1.884e-17
4285.064 5.409e-17 1.851e-17
4286.151 5.498e-17 1.826e-17
4287.238 1.913e-17 1.757e-17
4288.325 8.764e-17 1.818e-17
4289.412 3.981e-17 1.785e-17
4290.5 6.801e-17 1.862e-17
4291.587 4.3e-17 1.806e-17
4292.674 5.668e-17 1.849e-17
4293.761 9.953e-17 1.889e-17
4294.849 6.72e-17 1.812e-17
4295.935 2.224e-17 1.736e-17
4297.023 3.179e-17 1.695e-17
4298.11 6.762e-17 1.689e-17
4299.198 4.23e-17 1.638e-17
4300.284 4.408e-17 1.669e-17
4301.372 6.23e-17 1.685e-17
4302.459 7.169e-17 1.714e-17
4303.546 3.682e-17 1.64e-17
4304.634 6.988e-17 1.711e-17
4305.721 5.447e-17 1.637e-17
4306.809 5.479e-17 1.651e-17
4307.896 2.424e-17 1.598e-17
4308.983 8.227e-17 1.692e-17
4310.071 7.342e-17 1.728e-17
4311.158 2.972e-17 1.693e-17
4312.245 4.889e-17 1.764e-17
4313.333 7.054e-17 1.888e-17
4314.421 3.815e-17 1.856e-17
4315.508 7.062e-17 1.928e-17
4316.595 2.923e-17 1.908e-17
4317.683 9.844e-17 2.014e-17
4318.77 8.282e-17 1.97e-17
4319.858 1.044e-16 1.968e-17
4320.946 5.089e-17 1.852e-17
4322.034 4.276e-17 1.796e-17
4323.12 7.374e-17 1.743e-17
4324.208 2.562e-17 1.676e-17
4325.296 5.815e-17 1.753e-17
4326.383 3.221e-17 1.784e-17
4327.471 4.663e-17 1.867e-17
4328.559 2.805e-17 1.833e-17
4329.647 3.019e-17 1.83e-17
4330.734 4.119e-17 1.835e-17
4331.822 4.314e-17 1.88e-17
4332.91 5.914e-17 1.903e-17
4333.997 5.139e-17 1.865e-17
4335.085 4.307e-17 1.839e-17
4336.173 5.763e-17 1.817e-17
4337.261 8.594e-17 1.823e-17
4338.348 2.084e-17 1.681e-17
4339.436 6.398e-17 1.782e-17
4340.524 2.572e-17 1.725e-17
4341.611 3.604e-17 1.759e-17
4342.699 6.094e-17 1.857e-17
4343.787 9.807e-17 1.943e-17
4344.875 6.456e-17 1.945e-17
4345.963 8.561e-17 1.954e-17
4347.051 7.583e-17 1.989e-17
4348.139 5.655e-17 1.928e-17
4349.226 1.564e-17 1.888e-17
4350.314 5.061e-17 1.848e-17
4351.402 1.771e-17 1.8e-17
4352.491 5.536e-17 1.876e-17
4353.578 4.887e-17 1.915e-17
4354.666 3.234e-17 2.147e-17
4355.754 7.067e-17 2.544e-17
4356.842 5.165e-17 2.774e-17
4357.93 9.41e-17 2.812e-17
4359.018 3.443e-17 2.454e-17
4360.107 6.75e-17 2.268e-17
4361.194 2.5e-17 2.022e-17
4362.282 8.3e-17 2.068e-17
4363.37 8.464e-17 2.039e-17
4364.458 3.644e-17 1.94e-17
4365.546 9.718e-17 2.024e-17
4366.635 6.348e-17 1.985e-17
4367.722 6.199e-17 1.959e-17
4368.81 7.586e-17 1.996e-17
4369.899 2.909e-17 1.875e-17
4370.987 9.681e-17 1.992e-17
4372.075 9.408e-17 1.98e-17
4373.163 4.561e-17 1.883e-17
4374.252 3.74e-17 1.869e-17
4375.339 6.158e-17 1.903e-17
4376.427 8.496e-17 1.957e-17
4377.516 4.22e-17 1.935e-17
4378.604 5.6e-17 1.953e-17
4379.692 8.831e-17 1.966e-17
4380.781 8.188e-17 1.872e-17
4381.869 3.566e-17 1.751e-17
4382.957 5.035e-17 1.753e-17
4384.045 5.488e-17 1.788e-17
4385.134 3.464e-17 1.797e-17
4386.222 6.381e-17 1.857e-17
4387.31 3.382e-17 1.829e-17
4388.398 5.923e-17 1.87e-17
4389.487 9.587e-17 1.902e-17
4390.575 5.007e-17 1.831e-17
4391.663 5.541e-17 1.839e-17
4392.752 8.376e-17 1.908e-17
4393.841 2.568e-17 1.797e-17
4394.928 4.465e-17 1.844e-17
4396.017 5.652e-17 1.9e-17
4397.106 2.022e-17 1.873e-17
4398.193 5.395e-17 1.879e-17
4399.282 5.935e-18 1.804e-17
4400.371 6.577e-17 1.895e-17
4401.46 4.832e-17 1.858e-17
4402.547 1.811e-17 1.794e-17
4403.636 5.688e-17 1.809e-17
4404.725 4.624e-17 1.824e-17
4405.813 5.911e-17 1.885e-17
4406.901 5.07e-17 1.884e-17
4407.99 3.808e-17 1.899e-17
4409.079 2.056e-17 1.87e-17
4410.167 8.466e-17 1.983e-17
4411.256 4.633e-17 1.913e-17
4412.344 7.324e-17 1.954e-17
4413.432 1.431e-17 1.803e-17
4414.521 5.901e-17 1.865e-17
4415.61 1.003e-16 1.928e-17
4416.699 7.087e-17 1.911e-17
4417.787 7.163e-17 1.943e-17
4418.876 3.377e-17 1.906e-17
4419.965 4.955e-17 1.91e-17
4421.053 2.263e-17 1.85e-17
4422.141 8.817e-17 1.955e-17
4423.23 4.568e-17 1.882e-17
4424.319 7.152e-17 1.946e-17
4425.407 5.9e-17 1.879e-17
4426.496 6.844e-17 1.926e-17
4427.585 5.8e-17 1.917e-17
4428.673 6.161e-17 1.898e-17
4429.762 8.233e-17 1.952e-17
4430.851 8.553e-17 1.935e-17
4431.94 4.116e-17 1.84e-17
4433.028 2.988e-17 1.823e-17
4434.117 6.743e-17 1.881e-17
4435.206 4.993e-17 1.846e-17
4436.294 9.914e-17 1.951e-17
4437.383 6.254e-17 1.906e-17
4438.472 7.069e-17 1.935e-17
4439.562 9.045e-17 1.923e-17
4440.65 3.513e-17 1.827e-17
4441.739 7.137e-17 1.878e-17
4442.828 9.543e-17 1.942e-17
4443.916 8.84e-17 1.938e-17
4445.005 9.141e-17 1.922e-17
4446.094 5.227e-17 1.87e-17
4447.183 4.788e-17 1.892e-17
4448.271 7.28e-17 1.948e-17
4449.361 7.375e-17 1.926e-17
4450.45 5.954e-17 1.907e-17
4451.538 3.282e-17 1.817e-17
4452.627 1.128e-16 1.884e-17
4453.716 6.376e-17 1.792e-17
4454.805 6.711e-17 1.827e-17
4455.894 4.689e-17 1.806e-17
4456.983 6.994e-17 1.823e-17
4458.072 9.208e-17 1.866e-17
4459.16 5.735e-17 1.805e-17
4460.25 5.656e-17 1.803e-17
4461.339 7.068e-17 1.817e-17
4462.428 6.119e-17 1.844e-17
4463.516 9.156e-17 1.915e-17
4464.606 5.772e-17 1.831e-17
4465.695 5.317e-17 1.841e-17
4466.783 1.344e-16 1.958e-17
4467.872 5.212e-17 1.861e-17
4468.962 7.04e-17 1.871e-17
4470.051 6.148e-17 1.899e-17
4471.139 4.346e-17 1.89e-17
4472.229 6.345e-17 1.931e-17
4473.318 7.666e-17 1.927e-17
4474.406 1.957e-17 1.83e-17
4475.496 1.154e-16 1.993e-17
4476.585 7.736e-17 1.908e-17
4477.674 8.877e-17 1.894e-17
4478.763 7.006e-17 1.863e-17
4479.852 5.097e-17 1.812e-17
4480.941 4.694e-17 1.829e-17
4482.03 6.747e-17 1.873e-17
4483.119 3.824e-17 1.847e-17
4484.209 7.555e-17 1.933e-17
4485.298 7.84e-17 1.924e-17
4486.386 4.662e-17 1.893e-17
4487.476 4.003e-17 1.862e-17
4488.565 7.58e-17 1.897e-17
4489.654 6.99e-17 1.894e-17
4490.743 8.668e-17 1.932e-17
4491.833 9.287e-17 1.965e-17
4492.921 5.517e-17 1.894e-17
4494.011 3.742e-17 1.841e-17
4495.1 6.502e-17 1.874e-17
4496.189 7.439e-17 1.898e-17
4497.278 5.766e-17 1.888e-17
4498.367 7.404e-17 1.929e-17
4499.457 6.637e-17 1.898e-17
4500.545 4.007e-17 1.851e-17
4501.635 9.215e-17 1.943e-17
4502.724 6.584e-17 1.909e-17
4503.814 1.115e-17 1.862e-17
4504.902 7.351e-17 1.946e-17
4505.992 5.648e-17 1.902e-17
4507.082 7.074e-17 1.901e-17
4508.17 3.129e-17 1.876e-17
4509.26 3.425e-17 1.877e-17
4510.349 5.913e-17 1.91e-17
4511.439 7.122e-17 1.888e-17
4512.527 6.346e-17 1.902e-17
4513.617 4.225e-17 1.863e-17
4514.706 2.735e-17 1.849e-17
4515.795 7.025e-17 1.868e-17
4516.885 7.717e-17 1.875e-17
4517.974 9.161e-17 1.934e-17
4519.064 9.218e-17 1.926e-17
4520.152 1.091e-16 1.961e-17
4521.242 8.978e-17 1.909e-17
4522.332 3.493e-17 1.853e-17
4523.42 9.619e-17 1.885e-17
4524.51 1.703e-17 1.752e-17
4525.6 1.122e-16 1.85e-17
4526.689 7.038e-17 1.84e-17
4527.778 6.291e-17 1.773e-17
4528.868 7.331e-17 1.801e-17
4529.957 8.766e-17 1.861e-17
4531.046 8.62e-17 1.849e-17
4532.136 7.482e-17 1.84e-17
4533.225 7.952e-17 1.822e-17
4534.315 2.696e-17 1.763e-17
4535.404 5.147e-17 1.834e-17
4536.493 5.404e-17 1.87e-17
4537.583 7.566e-17 1.892e-17
4538.672 6.365e-17 1.857e-17
4539.761 3.826e-17 1.804e-17
4540.851 4.442e-17 1.851e-17
4541.941 8.497e-17 1.906e-17
4543.029 7.955e-17 1.886e-17
4544.119 6.648e-17 1.828e-17
4545.209 6.492e-17 1.829e-17
4546.298 4.586e-17 1.782e-17
4547.387 6.783e-17 1.822e-17
4548.477 5.35e-17 1.774e-17
4549.567 6.952e-17 1.828e-17
4550.656 6.689e-17 1.833e-17
4551.745 1.123e-16 1.887e-17
4552.835 5.097e-17 1.784e-17
4553.924 4.025e-17 1.756e-17
4555.014 1.136e-16 1.889e-17
4556.103 3.549e-17 1.801e-17
4557.193 8.976e-17 1.862e-17
4558.282 3.652e-17 1.779e-17
4559.372 5.782e-17 1.848e-17
4560.462 6.091e-17 1.813e-17
4561.55 5.983e-17 1.819e-17
4562.64 7.368e-17 1.806e-17
4563.73 9.269e-17 1.865e-17
4564.82 6.038e-17 1.794e-17
4565.908 7.39e-17 1.836e-17
4566.998 4.956e-17 1.823e-17
4568.088 8.4e-17 1.834e-17
4569.177 4.597e-17 1.768e-17
4570.267 8.6e-17 1.87e-17
4571.357 8.141e-17 1.826e-17
4572.445 5.584e-17 1.806e-17
4573.535 7.446e-17 1.815e-17
4574.625 5.032e-17 1.806e-17
4575.715 5.869e-17 1.812e-17
4576.804 7.336e-17 1.807e-17
4577.894 4.402e-17 1.775e-17
4578.983 4.857e-17 1.752e-17
4580.072 8.119e-17 1.795e-17
4581.162 7.289e-17 1.784e-17
4582.252 8.738e-17 1.824e-17
4583.342 7.467e-17 1.779e-17
4584.431 6.116e-17 1.753e-17
4585.521 7.31e-17 1.77e-17
4586.61 5.487e-17 1.781e-17
4587.699 4.537e-17 1.772e-17
4588.789 8.968e-17 1.81e-17
4589.879 5.648e-17 1.777e-17
4590.969 8.439e-17 1.817e-17
4592.058 8.926e-17 1.794e-17
4593.148 7.057e-17 1.774e-17
4594.237 3.311e-17 1.695e-17
4595.326 7.648e-17 1.765e-17
4596.416 3.118e-17 1.706e-17
4597.506 7.937e-17 1.769e-17
4598.596 2.003e-17 1.711e-17
4599.685 9.451e-17 1.773e-17
4600.775 7.372e-17 1.759e-17
4601.865 5.495e-17 1.709e-17
4602.954 3.935e-17 1.715e-17
4604.044 3.299e-17 1.704e-17
4605.133 1.09e-16 1.785e-17
4606.223 5.189e-17 1.771e-17
4607.312 8.643e-17 1.796e-17
4608.402 5.229e-17 1.754e-17
4609.492 5.01e-17 1.735e-17
4610.581 6.703e-17 1.749e-17
4611.671 5.205e-17 1.749e-17
4612.761 6.172e-17 1.734e-17
4613.851 1.173e-16 1.842e-17
4614.94 8.019e-17 1.741e-17
4616.03 5.526e-17 1.728e-17
4617.12 3.834e-17 1.693e-17
4618.208 3.829e-17 1.727e-17
4619.298 4.953e-17 1.727e-17
4620.388 3.696e-17 1.698e-17
4621.478 7.199e-17 1.799e-17
4622.567 4.722e-17 1.749e-17
4623.657 6.412e-17 1.743e-17
4624.747 2.07e-17 1.681e-17
4625.836 4.989e-17 1.724e-17
4626.926 5.021e-17 1.753e-17
4628.016 3.886e-17 1.702e-17
4629.106 3.577e-17 1.692e-17
4630.195 5.389e-17 1.7e-17
4631.285 2.892e-17 1.692e-17
4632.375 9.002e-17 1.777e-17
4633.464 4.133e-17 1.704e-17
4634.554 8.647e-17 1.777e-17
4635.643 6.877e-17 1.744e-17
4636.732 6.954e-17 1.736e-17
4637.822 1.179e-16 1.809e-17
4638.912 3.697e-17 1.699e-17
4640.002 3.606e-17 1.67e-17
4641.091 2.819e-17 1.675e-17
4642.181 3.385e-17 1.639e-17
4643.271 7.152e-17 1.703e-17
4644.36 5.814e-17 1.707e-17
4645.45 7.532e-17 1.718e-17
4646.54 5.029e-17 1.623e-17
4647.63 5.343e-17 1.665e-17
4648.719 7.122e-17 1.72e-17
4649.809 7.168e-17 1.752e-17
4650.899 8.623e-17 1.776e-17
4651.988 7.168e-17 1.727e-17
4653.078 5.797e-17 1.709e-17
4654.168 5.33e-17 1.699e-17
4655.258 5.595e-17 1.677e-17
4656.347 8.94e-17 1.756e-17
4657.436 1.199e-16 1.81e-17
4658.526 8.91e-17 1.792e-17
4659.615 9.787e-17 1.796e-17
4660.705 5.322e-17 1.711e-17
4661.795 3.618e-17 1.727e-17
4662.885 7.112e-17 1.734e-17
4663.974 8.797e-17 1.751e-17
4665.064 5.368e-17 1.671e-17
4666.154 6.124e-17 1.641e-17
4667.243 6.786e-17 1.645e-17
4668.333 6.028e-17 1.705e-17
4669.423 7.051e-17 1.691e-17
4670.513 7.991e-17 1.719e-17
4671.602 7.097e-17 1.707e-17
4672.692 4.472e-17 1.666e-17
4673.782 6.409e-17 1.725e-17
4674.871 3.465e-17 1.663e-17
4675.961 4.962e-17 1.662e-17
4677.051 7.815e-17 1.702e-17
4678.141 4.483e-17 1.643e-17
4679.229 4.276e-17 1.617e-17
4680.319 8.022e-17 1.68e-17
4681.409 5.967e-17 1.633e-17
4682.498 6.556e-17 1.662e-17
4683.588 6.648e-17 1.685e-17
4684.678 6.471e-17 1.664e-17
4685.768 9.812e-17 1.743e-17
4686.857 4.923e-17 1.618e-17
4687.947 7.494e-17 1.663e-17
4689.037 9.472e-17 1.698e-17
4690.126 6.973e-17 1.639e-17
4691.216 5.907e-17 1.639e-17
4692.306 8.94e-17 1.704e-17
4693.395 7.839e-17 1.688e-17
4694.484 2.76e-17 1.588e-17
4695.574 5.196e-17 1.645e-17
4696.664 7.175e-17 1.657e-17
4697.753 6.032e-17 1.616e-17
4698.843 6.493e-17 1.644e-17
4699.933 4.242e-17 1.611e-17
4701.022 8.617e-17 1.619e-17
4702.112 5.346e-17 1.606e-17
4703.202 4.547e-17 1.58e-17
4704.292 6.177e-17 1.631e-17
4705.381 6.467e-17 1.64e-17
4706.471 6.073e-17 1.654e-17
4707.56 6.232e-17 1.66e-17
4708.649 4.717e-17 1.628e-17
4709.739 7.887e-17 1.666e-17
4710.829 3.943e-17 1.609e-17
4711.919 5.595e-17 1.649e-17
4713.008 3.682e-17 1.606e-17
4714.098 5.234e-17 1.658e-17
4715.188 9.136e-17 1.692e-17
4716.277 6.541e-17 1.664e-17
4717.366 4.47e-17 1.685e-17
4718.456 8.789e-17 1.715e-17
4719.546 5.25e-17 1.68e-17
4720.635 7.83e-17 1.696e-17
4721.725 7.015e-17 1.729e-17
4722.815 9.142e-17 1.726e-17
4723.904 6.765e-17 1.702e-17
4724.993 6e-17 1.676e-17
4726.083 7.655e-17 1.691e-17
4727.173 6.434e-17 1.674e-17
4728.262 8.698e-17 1.728e-17
4729.352 4.292e-17 1.628e-17
4730.442 1.085e-16 1.742e-17
4731.531 6.078e-17 1.66e-17
4732.62 7.745e-17 1.712e-17
4733.71 7.648e-17 1.7e-17
4734.8 8.235e-17 1.697e-17
4735.889 8.014e-17 1.705e-17
4736.979 9.563e-17 1.722e-17
4738.069 6.766e-17 1.747e-17
4739.157 6.397e-17 1.713e-17
4740.247 7.471e-17 1.719e-17
4741.337 7.383e-17 1.711e-17
4742.427 5.14e-17 1.706e-17
4743.516 7.434e-17 1.746e-17
4744.605 8.684e-17 1.731e-17
4745.695 6.162e-17 1.685e-17
4746.784 5.292e-17 1.673e-17
4747.874 7.844e-17 1.704e-17
4748.964 1.063e-16 1.746e-17
4750.052 7.307e-17 1.701e-17
4751.142 5.909e-17 1.681e-17
4752.232 7.509e-17 1.69e-17
4753.322 6.294e-17 1.657e-17
4754.41 4.592e-17 1.626e-17
4755.5 7.544e-17 1.653e-17
4756.59 7.998e-17 1.675e-17
4757.679 8.229e-17 1.688e-17
4758.768 5.782e-17 1.664e-17
4759.858 9.394e-17 1.722e-17
4760.948 4.909e-17 1.643e-17
4762.037 7.007e-17 1.659e-17
4763.126 9.31e-17 1.677e-17
4764.216 6.984e-17 1.629e-17
4765.305 1.064e-16 1.705e-17
4766.395 5.264e-17 1.641e-17
4767.484 1.107e-16 1.733e-17
4768.574 7.068e-17 1.653e-17
4769.663 7.556e-17 1.692e-17
4770.752 7.17e-17 1.668e-17
4771.842 8.329e-17 1.703e-17
4772.931 8.588e-17 1.737e-17
4774.02 7.027e-17 1.679e-17
4775.11 1.089e-16 1.74e-17
4776.2 7.632e-17 1.702e-17
4777.288 7.994e-17 1.702e-17
4778.378 8.581e-17 1.728e-17
4779.468 8.578e-17 1.726e-17
4780.556 4.393e-17 1.622e-17
4781.646 8.051e-17 1.686e-17
4782.736 5.111e-17 1.599e-17
4783.825 2.613e-17 1.579e-17
4784.914 6.484e-17 1.63e-17
4786.004 4.995e-17 1.616e-17
4787.093 8.899e-17 1.655e-17
4788.182 5.481e-17 1.635e-17
4789.271 7.34e-17 1.669e-17
4790.361 7.825e-17 1.68e-17
4791.451 7.009e-17 1.706e-17
4792.539 7.379e-17 1.697e-17
4793.629 7.622e-17 1.702e-17
4794.718 7.311e-17 1.681e-17
4795.807 5.594e-17 1.658e-17
4796.897 8.083e-17 1.688e-17
4797.986 1.124e-16 1.708e-17
4799.075 1.089e-16 1.756e-17
4800.164 8.671e-17 1.687e-17
4801.254 7.75e-17 1.694e-17
4802.343 6.443e-17 1.677e-17
4803.432 8.578e-17 1.725e-17
4804.521 9.234e-17 1.698e-17
4805.611 5.589e-17 1.654e-17
4806.699 1.051e-16 1.692e-17
4807.789 9.031e-17 1.668e-17
4808.878 8.185e-17 1.666e-17
4809.968 8.269e-17 1.698e-17
4811.056 8.932e-17 1.681e-17
4812.146 8.234e-17 1.701e-17
4813.235 8.373e-17 1.713e-17
4814.324 7.99e-17 1.713e-17
4815.413 6.272e-17 1.69e-17
4816.503 9.062e-17 1.731e-17
4817.592 1.111e-16 1.747e-17
4818.681 6.027e-17 1.635e-17
4819.77 6.023e-17 1.677e-17
4820.86 7.061e-17 1.664e-17
4821.948 6.732e-17 1.657e-17
4823.037 7.329e-17 1.674e-17
4824.127 3.002e-17 1.616e-17
4825.216 9.634e-17 1.724e-17
4826.305 9.592e-17 1.741e-17
4827.394 5.038e-17 1.669e-17
4828.483 6.718e-17 1.662e-17
4829.572 6.122e-17 1.694e-17
4830.661 9.948e-17 1.739e-17
4831.75 4.25e-17 1.68e-17
4832.84 1.076e-16 1.708e-17
4833.928 7.006e-17 1.697e-17
4835.017 9.093e-17 1.711e-17
4836.107 9.388e-17 1.703e-17
4837.195 7.68e-17 1.661e-17
4838.284 8.667e-17 1.686e-17
4839.374 6.853e-17 1.678e-17
4840.463 5.012e-17 1.662e-17
4841.551 1.157e-16 1.744e-17
4842.641 1.205e-16 1.718e-17
4843.73 1.15e-16 1.712e-17
4844.818 7.747e-17 1.682e-17
4845.907 7.538e-17 1.659e-17
4846.997 9.136e-17 1.673e-17
4848.085 5.827e-17 1.645e-17
4849.174 1.001e-16 1.75e-17
4850.263 5.03e-17 1.647e-17
4851.353 4.778e-17 1.633e-17
4852.441 1.116e-16 1.717e-17
4853.53 6.704e-17 1.609e-17
4854.619 1.254e-16 1.721e-17
4855.707 9.849e-17 1.662e-17
4856.797 9.611e-17 1.629e-17
4857.886 8.358e-17 1.629e-17
4858.975 6.62e-17 1.581e-17
4860.063 6.049e-17 1.541e-17
4861.152 8.378e-17 1.627e-17
4862.241 7.001e-17 1.61e-17
4863.329 9.068e-17 1.628e-17
4864.419 7.291e-17 1.604e-17
4865.508 7.369e-17 1.625e-17
4866.597 7.519e-17 1.637e-17
4867.685 9.287e-17 1.649e-17
4868.774 8.659e-17 1.634e-17
4869.863 9.371e-17 1.64e-17
4870.951 7.292e-17 1.587e-17
4872.04 9.326e-17 1.622e-17
4873.129 9.981e-17 1.658e-17
4874.218 1.028e-16 1.68e-17
4875.306 5.945e-17 1.619e-17
4876.395 1.012e-16 1.662e-17
4877.484 9.677e-17 1.703e-17
4878.572 7.832e-17 1.65e-17
4879.661 6.359e-17 1.64e-17
4880.75 6.485e-17 1.649e-17
4881.839 7.883e-17 1.627e-17
4882.927 9.785e-17 1.674e-17
4884.016 4.733e-17 1.565e-17
4885.105 2.083e-17 1.559e-17
4886.193 7.07e-17 1.614e-17
4887.282 7.018e-17 1.586e-17
4888.371 4.853e-17 1.569e-17
4889.46 8.264e-17 1.617e-17
4890.548 9.081e-17 1.635e-17
4891.637 1.001e-16 1.645e-17
4892.725 9.759e-17 1.684e-17
4893.813 7.632e-17 1.666e-17
4894.902 6.351e-17 1.67e-17
4895.991 9.333e-17 1.689e-17
4897.079 9.81e-17 1.677e-17
4898.168 1.14e-16 1.679e-17
4899.256 5.32e-17 1.608e-17
4900.345 4.649e-17 1.574e-17
4901.433 9.205e-17 1.651e-17
4902.522 7.78e-17 1.629e-17
4903.611 8.334e-17 1.631e-17
4904.698 9.638e-17 1.679e-17
4905.787 9.068e-17 1.651e-17
4906.876 8.603e-17 1.604e-17
4907.965 9.449e-17 1.657e-17
4909.052 6.21e-17 1.598e-17
4910.141 7.122e-17 1.589e-17
4911.23 9.443e-17 1.66e-17
4912.317 3.672e-17 1.583e-17
4913.406 1.004e-16 1.681e-17
4914.495 7.87e-17 1.657e-17
4915.584 7.352e-17 1.622e-17
4916.671 7.637e-17 1.579e-17
4917.76 7.196e-17 1.569e-17
4918.848 6.865e-17 1.57e-17
4919.936 9.331e-17 1.569e-17
4921.025 8.357e-17 1.584e-17
4922.113 8.466e-17 1.622e-17
4923.202 6.564e-17 1.573e-17
4924.289 9.683e-17 1.656e-17
4925.378 9.951e-17 1.643e-17
4926.467 8.687e-17 1.64e-17
4927.554 6.929e-17 1.6e-17
4928.643 6.005e-17 1.6e-17
4929.731 4.39e-17 1.551e-17
4930.82 6.185e-17 1.621e-17
4931.907 3.5e-17 1.538e-17
4932.996 6.402e-17 1.579e-17
4934.084 3.789e-17 1.518e-17
4935.171 1.18e-16 1.681e-17
4936.26 6.092e-17 1.562e-17
4937.348 8.887e-17 1.628e-17
4938.437 4.422e-17 1.575e-17
4939.524 6.675e-17 1.548e-17
4940.613 1.05e-16 1.677e-17
4941.701 7.723e-17 1.602e-17
4942.788 1.06e-16 1.676e-17
4943.877 9.597e-17 1.651e-17
4944.965 6.879e-17 1.6e-17
4946.052 1.02e-16 1.653e-17
4947.141 9.577e-17 1.629e-17
4948.229 1.209e-16 1.687e-17
4949.317 1.283e-16 1.721e-17
4950.405 1.009e-16 1.664e-17
4951.493 6.936e-17 1.602e-17
4952.581 6.349e-17 1.621e-17
4953.668 8.862e-17 1.628e-17
4954.757 9.398e-17 1.627e-17
4955.845 9.595e-17 1.637e-17
4956.933 7.007e-17 1.549e-17
4958.02 9.46e-17 1.617e-17
4959.109 9.672e-17 1.617e-17
4960.197 8.013e-17 1.624e-17
4961.284 6.573e-17 1.581e-17
4962.372 6.722e-17 1.619e-17
4963.46 7.451e-17 1.596e-17
4964.548 7.783e-17 1.603e-17
4965.635 6.422e-17 1.598e-17
4966.724 1.184e-16 1.668e-17
4967.812 5.921e-17 1.558e-17
4968.899 6.513e-17 1.594e-17
4969.987 1.126e-16 1.644e-17
4971.075 9.517e-17 1.654e-17
4972.163 1.247e-16 1.695e-17
4973.25 7.961e-17 1.617e-17
4974.338 6.865e-17 1.596e-17
4975.426 6.71e-17 1.648e-17
4976.513 6.63e-17 1.603e-17
4977.601 9.233e-17 1.645e-17
4978.689 1.047e-16 1.655e-17
4979.777 5.069e-17 1.567e-17
4980.864 1.145e-16 1.657e-17
4981.952 8.534e-17 1.611e-17
4983.04 1.053e-16 1.654e-17
4984.126 4.179e-17 1.548e-17
4985.214 5.703e-17 1.588e-17
4986.302 8.906e-17 1.641e-17
4987.39 4.508e-17 1.571e-17
4988.477 5.908e-17 1.6e-17
4989.565 7.548e-17 1.593e-17
4990.652 6.732e-17 1.568e-17
4991.739 6.097e-17 1.575e-17
4992.827 9.596e-17 1.628e-17
4993.915 6.963e-17 1.56e-17
4995.002 9.434e-17 1.599e-17
4996.089 4.498e-17 1.52e-17
4997.177 8.578e-17 1.578e-17
4998.265 6.836e-17 1.547e-17
4999.351 7.533e-17 1.542e-17
5000.439 8.449e-17 1.538e-17
5001.527 9.7e-17 1.566e-17
5002.613 1.231e-16 1.611e-17
5003.701 1.139e-16 1.566e-17
5004.789 6.626e-17 1.495e-17
5005.876 8.732e-17 1.531e-17
5006.963 7.106e-17 1.512e-17
5008.051 4.242e-17 1.473e-17
5009.138 2.552e-17 1.434e-17
5010.225 8.104e-17 1.534e-17
5011.312 6.671e-17 1.495e-17
5012.4 6.608e-17 1.492e-17
5013.487 5.815e-17 1.474e-17
5014.574 9.071e-17 1.556e-17
5015.661 8.129e-17 1.524e-17
5016.749 7.16e-17 1.488e-17
5017.835 5.017e-17 1.502e-17
5018.922 9.035e-17 1.553e-17
5020.01 9.562e-17 1.544e-17
5021.097 1.127e-16 1.556e-17
5022.184 8.254e-17 1.535e-17
5023.271 7.45e-17 1.511e-17
5024.358 6.372e-17 1.498e-17
5025.445 7.211e-17 1.511e-17
5026.532 6.947e-17 1.486e-17
5027.619 6.827e-17 1.509e-17
5028.707 8.296e-17 1.566e-17
5029.793 7.646e-17 1.531e-17
5030.88 6.979e-17 1.59e-17
5031.967 7.983e-17 1.566e-17
5033.054 1.015e-16 1.558e-17
5034.141 4.943e-17 1.486e-17
5035.228 6.662e-17 1.504e-17
5036.314 8.849e-17 1.505e-17
5037.401 5.862e-17 1.487e-17
5038.489 1.027e-16 1.509e-17
5039.576 9.671e-17 1.518e-17
5040.662 1.013e-16 1.527e-17
5041.749 3.302e-17 1.433e-17
5042.836 6.569e-17 1.499e-17
5043.922 8.462e-17 1.547e-17
5045.009 7.975e-17 1.547e-17
5046.096 9.547e-17 1.559e-17
5047.183 5.314e-17 1.475e-17
5048.269 9.299e-17 1.544e-17
5049.356 8.484e-17 1.516e-17
5050.443 8.033e-17 1.521e-17
5051.529 6.874e-17 1.486e-17
5052.616 8.026e-17 1.541e-17
5053.703 8.042e-17 1.556e-17
5054.79 8.76e-17 1.554e-17
5055.876 1.006e-16 1.592e-17
5056.963 6.245e-17 1.541e-17
5058.05 1.079e-16 1.633e-17
5059.135 6.256e-17 1.545e-17
5060.222 8.106e-17 1.561e-17
5061.309 9.41e-17 1.572e-17
5062.396 6.456e-17 1.53e-17
5063.482 6.185e-17 1.517e-17
5064.568 9.328e-17 1.553e-17
5065.655 1.126e-16 1.627e-17
5066.741 7.369e-17 1.53e-17
5067.828 9.437e-17 1.574e-17
5068.914 8.809e-17 1.576e-17
5070.001 8.27e-17 1.579e-17
5071.087 7.899e-17 1.545e-17
5072.173 7.111e-17 1.514e-17
5073.26 8.248e-17 1.541e-17
5074.346 6.747e-17 1.537e-17
5075.432 5.673e-17 1.475e-17
5076.519 5.051e-17 1.486e-17
5077.605 9.37e-17 1.589e-17
5078.691 9.169e-17 1.57e-17
5079.777 7.084e-17 1.561e-17
5080.864 5.739e-17 1.536e-17
5081.949 1.072e-16 1.666e-17
5083.036 8.708e-17 1.64e-17
5084.122 9.078e-17 1.654e-17
5085.208 9.656e-17 1.679e-17
5086.294 6.634e-17 1.578e-17
5087.38 9.362e-17 1.623e-17
5088.467 8.264e-17 1.591e-17
5089.552 1.098e-16 1.642e-17
5090.638 7.7e-17 1.579e-17
5091.725 1.012e-16 1.605e-17
5092.81 9.128e-17 1.593e-17
5093.896 6.659e-17 1.551e-17
5094.983 8.119e-17 1.558e-17
5096.069 5.94e-17 1.533e-17
5097.154 6.404e-17 1.531e-17
5098.24 8.113e-17 1.548e-17
5099.327 9.47e-17 1.615e-17
5100.412 9.268e-17 1.597e-17
5101.498 6.09e-17 1.529e-17
5102.584 5.255e-17 1.488e-17
5103.67 7.174e-17 1.54e-17
5104.755 7.904e-17 1.501e-17
5105.841 9.844e-17 1.576e-17
5106.927 5.823e-17 1.457e-17
5108.012 7.106e-17 1.542e-17
5109.098 5.502e-17 1.505e-17
5110.184 5.507e-17 1.495e-17
5111.27 8.679e-17 1.563e-17
5112.355 7.361e-17 1.543e-17
5113.441 4.761e-17 1.513e-17
5114.527 1.019e-16 1.603e-17
5115.612 8.08e-17 1.553e-17
5116.698 8.345e-17 1.575e-17
5117.784 6.243e-17 1.499e-17
5118.87 1.06e-16 1.595e-17
5119.955 8.543e-17 1.565e-17
5121.04 5.821e-17 1.516e-17
5122.126 6.063e-17 1.518e-17
5123.211 9.104e-17 1.567e-17
5124.297 8.22e-17 1.557e-17
5125.383 9.991e-17 1.542e-17
5126.468 5.601e-17 1.499e-17
5127.553 6.949e-17 1.525e-17
5128.639 9.812e-17 1.575e-17
5129.724 8.719e-17 1.563e-17
5130.809 1.238e-16 1.613e-17
5131.895 7.536e-17 1.523e-17
5132.98 7.945e-17 1.58e-17
5134.065 8.77e-17 1.599e-17
5135.15 9.148e-17 1.568e-17
5136.236 5.446e-17 1.516e-17
5137.321 5.663e-17 1.483e-17
5138.406 8.896e-17 1.554e-17
5139.491 9.006e-17 1.562e-17
5140.577 8.473e-17 1.566e-17
5141.661 7.629e-17 1.546e-17
5142.747 8.241e-17 1.569e-17
5143.832 7.079e-17 1.567e-17
5144.917 1.088e-16 1.624e-17
5146.002 9.028e-17 1.557e-17
5147.087 1.02e-16 1.588e-17
5148.172 1.173e-16 1.632e-17
5149.257 8.783e-17 1.582e-17
5150.342 7.479e-17 1.562e-17
5151.427 5.113e-17 1.526e-17
5152.512 8.16e-17 1.588e-17
5153.597 8.573e-17 1.616e-17
5154.682 9.13e-17 1.616e-17
5155.767 7.146e-17 1.565e-17
5156.851 1.234e-16 1.635e-17
5157.936 7.458e-17 1.589e-17
5159.021 8.755e-17 1.611e-17
5160.107 9.401e-17 1.59e-17
5161.191 7.252e-17 1.551e-17
5162.276 9.254e-17 1.55e-17
5163.361 8.931e-17 1.571e-17
5164.445 9.85e-17 1.544e-17
5165.53 1.033e-16 1.526e-17
5166.615 9.398e-17 1.511e-17
5167.7 8.541e-17 1.496e-17
5168.784 7.485e-17 1.487e-17
5169.868 9.514e-17 1.514e-17
5170.953 9.977e-17 1.501e-17
5172.037 9.238e-17 1.492e-17
5173.122 7.273e-17 1.486e-17
5174.207 8.316e-17 1.539e-17
5175.292 1.015e-16 1.605e-17
5176.375 6.066e-17 1.545e-17
5177.46 1.032e-16 1.576e-17
5178.545 6.371e-17 1.547e-17
5179.629 9.399e-17 1.566e-17
5180.713 6.571e-17 1.489e-17
5181.798 6.671e-17 1.454e-17
5182.882 8.677e-17 1.483e-17
5183.966 1.059e-16 1.553e-17
5185.051 1.009e-16 1.592e-17
5186.135 7.803e-17 1.548e-17
5187.219 6.092e-17 1.534e-17
5188.303 7.718e-17 1.551e-17
5189.388 9.429e-17 1.59e-17
5190.471 8.033e-17 1.577e-17
5191.556 9.641e-17 1.599e-17
5192.64 8.172e-17 1.58e-17
5193.725 8.38e-17 1.583e-17
5194.808 1.069e-16 1.648e-17
5195.893 9.136e-17 1.593e-17
5196.977 9.808e-17 1.667e-17
5198.06 7.922e-17 1.656e-17
5199.145 4.942e-17 1.595e-17
5200.229 8.845e-17 1.659e-17
5201.313 9.429e-17 1.644e-17
5202.396 7.453e-17 1.544e-17
5203.481 9.11e-17 1.61e-17
5204.565 9.546e-17 1.592e-17
5205.648 6.006e-17 1.491e-17
5206.732 4.356e-17 1.527e-17
5207.816 6.086e-17 1.54e-17
5208.9 4.9e-17 1.538e-17
5209.983 6.663e-17 1.563e-17
5211.067 1.039e-16 1.604e-17
5212.151 3.44e-17 1.507e-17
5213.234 7.221e-17 1.551e-17
5214.318 7.363e-17 1.546e-17
5215.402 8.783e-17 1.592e-17
5216.486 8.211e-17 1.568e-17
5217.569 6.959e-17 1.564e-17
5218.653 6.848e-17 1.564e-17
5219.737 4.786e-17 1.54e-17
5220.82 7.594e-17 1.593e-17
5221.904 6.369e-17 1.598e-17
5222.988 6.696e-17 1.607e-17
5224.071 6.458e-17 1.557e-17
5225.154 4.661e-17 1.482e-17
5226.238 9.404e-17 1.56e-17
5227.321 6.712e-17 1.525e-17
5228.404 9.012e-17 1.563e-17
5229.488 6.71e-17 1.549e-17
5230.571 1.004e-16 1.615e-17
5231.654 5.669e-17 1.529e-17
5232.738 8.86e-17 1.594e-17
5233.821 6.935e-17 1.539e-17
5234.905 6.865e-17 1.609e-17
5235.987 8.958e-17 1.607e-17
5237.071 4.854e-17 1.541e-17
5238.154 9.447e-17 1.644e-17
5239.237 1.081e-16 1.654e-17
5240.32 5.711e-17 1.571e-17
5241.403 8.754e-17 1.593e-17
5242.487 9.786e-17 1.594e-17
5243.569 7.814e-17 1.56e-17
5244.653 6.733e-17 1.561e-17
5245.736 8.669e-17 1.563e-17
5246.818 1.214e-16 1.658e-17
5247.901 7.669e-17 1.555e-17
5248.985 6.871e-17 1.575e-17
5250.068 8.495e-17 1.615e-17
5251.15 7.953e-17 1.566e-17
5252.233 9.209e-17 1.599e-17
5253.316 7.468e-17 1.607e-17
5254.398 5.947e-17 1.522e-17
5255.481 8.262e-17 1.618e-17
5256.564 7.883e-17 1.595e-17
5257.647 1.236e-16 1.68e-17
5258.729 9.413e-17 1.628e-17
5259.812 7.796e-17 1.582e-17
5260.895 7.722e-17 1.571e-17
5261.977 7.123e-17 1.514e-17
5263.06 1.018e-16 1.55e-17
5264.143 6.26e-17 1.471e-17
5265.226 6.456e-17 1.499e-17
5266.308 1.031e-16 1.529e-17
5267.391 8.94e-17 1.483e-17
5268.473 9.233e-17 1.556e-17
5269.555 8.806e-17 1.533e-17
5270.638 9.988e-17 1.565e-17
5271.72 4.737e-17 1.47e-17
5272.803 1.007e-16 1.618e-17
5273.885 1.009e-16 1.587e-17
5274.967 8.716e-17 1.615e-17
5276.05 6.401e-17 1.573e-17
5277.132 5.691e-17 1.548e-17
5278.214 4.654e-17 1.558e-17
5279.297 7.942e-17 1.582e-17
5280.379 7.906e-17 1.571e-17
5281.461 6.499e-17 1.535e-17
5282.543 7.709e-17 1.573e-17
5283.625 5.324e-17 1.564e-17
5284.707 7.211e-17 1.637e-17
5285.789 4.336e-17 1.531e-17
5286.872 6.237e-17 1.581e-17
5287.953 9.325e-17 1.646e-17
5289.035 1.086e-16 1.664e-17
5290.117 7.968e-17 1.617e-17
5291.2 9.049e-17 1.636e-17
5292.281 9.501e-17 1.638e-17
5293.363 3.965e-17 1.575e-17
5294.445 8.606e-17 1.635e-17
5295.526 1.077e-16 1.651e-17
5296.608 8.268e-17 1.592e-17
5297.69 8.13e-17 1.64e-17
5298.772 2.062e-17 1.54e-17
5299.853 7.6e-17 1.647e-17
5300.935 4.697e-17 1.617e-17
5302.017 7.262e-17 1.595e-17
5303.098 7.055e-17 1.669e-17
5304.18 7.961e-17 1.667e-17
5305.262 7.085e-17 1.677e-17
5306.344 1.16e-16 1.759e-17
5307.425 7.015e-17 1.66e-17
5308.507 9.305e-17 1.689e-17
5309.588 7.128e-17 1.661e-17
5310.669 1.183e-16 1.748e-17
5311.751 8.786e-17 1.741e-17
5312.833 1.119e-16 1.769e-17
5313.914 8.34e-17 1.691e-17
5314.995 7.211e-17 1.7e-17
5316.076 9.244e-17 2.04e-17
5317.158 7.275e-17 2.015e-17
5318.239 8.521e-17 2.065e-17
5319.32 9.894e-17 2.125e-17
5320.402 8.146e-17 2.101e-17
5321.483 8.863e-17 2.083e-17
5322.563 1.009e-16 2.106e-17
5323.645 9.858e-17 2.16e-17
5324.726 5.863e-17 2.022e-17
5325.807 1.04e-16 2.092e-17
5326.888 9.935e-17 2.048e-17
5327.969 9.583e-17 2.095e-17
5329.051 1.026e-16 2.153e-17
5330.131 7.865e-17 2.061e-17
5331.212 8.58e-17 2.077e-17
5332.293 1.187e-16 2.203e-17
5333.373 1.041e-16 2.198e-17
5334.455 1.1e-16 2.195e-17
5335.536 6.821e-17 2.106e-17
5336.617 8.93e-17 2.144e-17
5337.697 9.219e-17 2.15e-17
5338.778 8.452e-17 2.158e-17
5339.859 9.049e-17 2.143e-17
5340.939 6.952e-17 2.069e-17
5342.02 9.222e-17 2.167e-17
5343.101 1.031e-16 2.183e-17
5344.18 1.06e-16 2.197e-17
5345.261 7.415e-17 2.131e-17
5346.342 6.795e-17 2.086e-17
5347.423 6.541e-17 2.082e-17
5348.503 6.642e-17 2.148e-17
5349.583 6.509e-17 2.145e-17
5350.664 1.028e-16 2.208e-17
5351.744 7.421e-17 2.108e-17
5352.824 1.012e-16 2.189e-17
5353.905 8.295e-17 2.236e-17
5354.986 7.499e-17 2.202e-17
5356.065 1.039e-16 2.227e-17
5357.146 1.18e-16 2.234e-17
5358.226 7.957e-17 2.165e-17
5359.306 8.341e-17 2.165e-17
5360.386 9.239e-17 2.164e-17
5361.467 7.925e-17 2.117e-17
5362.547 7.257e-17 2.134e-17
5363.626 9.921e-17 2.144e-17
5364.707 5.429e-17 2.03e-17
5365.787 6.031e-17 2.041e-17
5366.866 7.166e-17 2.111e-17
5367.947 9.741e-17 2.169e-17
5369.027 9.593e-17 2.118e-17
5370.107 6.101e-17 2.027e-17
5371.186 5.619e-17 2.031e-17
5372.266 9.419e-17 2.158e-17
5373.346 4.723e-17 2.075e-17
5374.425 6.34e-17 2.104e-17
5375.505 9.071e-17 2.149e-17
5376.585 9.084e-17 2.151e-17
5377.665 8.638e-17 2.152e-17
5378.744 4.955e-17 2.042e-17
5379.824 7.743e-17 2.115e-17
5380.904 8.177e-17 2.097e-17
5381.983 8.493e-17 2.083e-17
5383.063 7.414e-17 2.069e-17
5384.143 7.321e-17 2.099e-17
5385.222 9.235e-17 2.148e-17
5386.301 7.24e-17 2.069e-17
5387.381 7.188e-17 2.062e-17
5388.46 6.002e-17 2.024e-17
5389.539 5.958e-17 2.076e-17
5390.619 7.808e-17 2.085e-17
5391.698 6.4e-17 2.053e-17
5392.778 7.301e-17 2.044e-17
5393.856 9.235e-17 2.076e-17
5394.936 8.919e-17 2.042e-17
5396.015 9.037e-17 2.05e-17
5397.094 6.718e-17 2.027e-17
5398.173 9.087e-17 2.07e-17
5399.252 8.077e-17 2.04e-17
5400.332 7.178e-17 2.024e-17
5401.41 8.543e-17 2.033e-17
5402.489 8.949e-17 2.035e-17
5403.569 6.087e-17 2.007e-17
5404.647 8.031e-17 2.031e-17
5405.726 8.877e-17 2e-17
5406.805 6.872e-17 2.008e-17
5407.884 7.123e-17 2.021e-17
5408.962 6.689e-17 1.98e-17
5410.041 9.299e-17 2.011e-17
5411.12 8.314e-17 2.014e-17
5412.198 8.535e-17 2.024e-17
5413.277 4.959e-17 1.985e-17
5414.356 8.792e-17 2.054e-17
5415.434 6.515e-17 2.01e-17
5416.513 6.799e-17 2.032e-17
5417.592 7.889e-17 1.993e-17
5418.671 9.406e-17 2.042e-17
5419.748 7.128e-17 2.016e-17
5420.827 7.846e-17 1.988e-17
5421.906 7.056e-17 1.995e-17
5422.984 7.529e-17 1.988e-17
5424.062 7.147e-17 2.003e-17
5425.141 7.022e-17 2.003e-17
5426.219 8.267e-17 2.007e-17
5427.297 1.011e-16 2.024e-17
5428.375 8.71e-17 2.017e-17
5429.454 6.829e-17 1.994e-17
5430.531 5.828e-17 1.983e-17
5431.61 8.159e-17 2.003e-17
5432.688 7.412e-17 1.988e-17
5433.766 7.8e-17 1.983e-17
5434.844 1.007e-16 2.023e-17
5435.922 8.081e-17 1.977e-17
5437.0 8.161e-17 1.995e-17
5438.078 8.636e-17 2.041e-17
5439.156 8.061e-17 1.994e-17
5440.234 5.993e-17 1.972e-17
5441.312 5.857e-17 1.972e-17
5442.389 1.014e-16 2.034e-17
5443.467 9.684e-17 2.008e-17
5444.545 6.684e-17 1.966e-17
5445.622 9.24e-17 2.014e-17
5446.7 1.185e-16 2.054e-17
5447.778 1.003e-16 2.027e-17
5448.856 8.457e-17 2.005e-17
5449.933 8.366e-17 2.011e-17
5451.011 8.055e-17 1.988e-17
5452.088 8.525e-17 2.009e-17
5453.165 6.493e-17 1.965e-17
5454.243 9.656e-17 2.03e-17
5455.321 8.195e-17 2.016e-17
5456.398 7.503e-17 2.021e-17
5457.475 8.37e-17 2.117e-17
5458.553 5.86e-17 2.205e-17
5459.63 5.662e-17 2.243e-17
5460.707 4.967e-17 2.226e-17
5461.784 5.051e-17 2.22e-17
5462.862 6.649e-17 2.2e-17
5463.939 7.37e-17 2.13e-17
5465.015 9.139e-17 2.12e-17
5466.093 8.816e-17 2.103e-17
5467.17 8.432e-17 2.08e-17
5468.246 8.758e-17 2.072e-17
5469.324 5.947e-17 2.017e-17
5470.401 7.074e-17 2.024e-17
5471.478 7.257e-17 2.021e-17
5472.554 9.08e-17 2.05e-17
5473.631 6.565e-17 1.995e-17
5474.708 7.398e-17 1.992e-17
5475.784 9.235e-17 2.007e-17
5476.861 8.617e-17 2.019e-17
5477.938 8.279e-17 2.011e-17
5479.015 9.337e-17 2.032e-17
5480.091 9.597e-17 2.021e-17
5481.168 8.782e-17 2.017e-17
5482.245 9.116e-17 2.037e-17
5483.321 8.406e-17 2.008e-17
5484.398 6.87e-17 1.986e-17
5485.474 6.053e-17 1.969e-17
5486.551 6.753e-17 1.963e-17
5487.627 6.311e-17 1.95e-17
5488.703 7.083e-17 1.974e-17
5489.78 9.381e-17 1.999e-17
5490.856 8.687e-17 1.978e-17
5491.932 7.642e-17 1.96e-17
5493.009 1.025e-16 1.996e-17
5494.084 9.494e-17 1.974e-17
5495.161 7.717e-17 1.944e-17
5496.237 7.089e-17 1.935e-17
5497.313 8.111e-17 1.933e-17
5498.389 9.37e-17 1.927e-17
5499.465 7.481e-17 1.909e-17
5500.541 7.992e-17 1.908e-17
5501.616 8.387e-17 1.919e-17
5502.693 9.921e-17 1.929e-17
5503.769 8.611e-17 1.9e-17
5504.845 6.736e-17 1.871e-17
5505.92 7.539e-17 1.867e-17
5506.996 6.888e-17 1.859e-17
5508.072 6.405e-17 1.843e-17
5509.147 7.572e-17 1.846e-17
5510.223 7.812e-17 1.853e-17
5511.299 7.022e-17 1.836e-17
5512.375 6.025e-17 1.817e-17
5513.45 6.656e-17 1.827e-17
5514.525 8.295e-17 1.831e-17
5515.601 9.995e-17 1.833e-17
5516.676 8.656e-17 1.826e-17
5517.752 7.28e-17 1.782e-17
5518.827 5.183e-17 1.738e-17
5519.903 5.869e-17 1.745e-17
5520.977 6.156e-17 1.752e-17
5522.053 7.03e-17 1.768e-17
5523.128 6.089e-17 1.758e-17
5524.203 4.21e-17 1.718e-17
5525.278 5.988e-17 1.714e-17
5526.354 6.431e-17 1.702e-17
5527.429 5.185e-17 1.686e-17
5528.503 6.777e-17 1.7e-17
5529.579 6.401e-17 1.684e-17
5530.654 5.398e-17 1.666e-17
5531.728 6.526e-17 1.677e-17
5532.803 6.913e-17 1.663e-17
5533.879 6.447e-17 1.653e-17
5534.954 6.774e-17 1.659e-17
5536.028 8.609e-17 1.653e-17
5537.103 8.536e-17 1.645e-17
5538.178 6.857e-17 1.631e-17
5539.252 6.57e-17 1.608e-17
5540.327 8.205e-17 1.629e-17
5541.402 7.345e-17 1.635e-17
5542.476 6.252e-17 1.599e-17
5543.55 8.585e-17 1.61e-17
5544.625 8.259e-17 1.633e-17
5545.7 7.387e-17 1.624e-17
5546.774 6.37e-17 1.598e-17
5547.848 6.447e-17 1.588e-17
5548.923 6.636e-17 1.583e-17
5549.997 7.244e-17 1.564e-17
5551.071 7.72e-17 1.572e-17
5552.145 8.668e-17 1.571e-17
5553.22 7.089e-17 1.551e-17
5554.293 6.235e-17 1.532e-17
5555.368 6.105e-17 1.529e-17
5556.442 6.266e-17 1.512e-17
5557.517 5.189e-17 1.495e-17
5558.59 7.779e-17 1.526e-17
5559.664 8.923e-17 1.535e-17
5560.738 4.368e-17 1.509e-17
5561.811 6.618e-17 1.492e-17
5562.886 8.086e-17 1.51e-17
5563.96 6.905e-17 1.542e-17
5565.034 7.836e-17 1.541e-17
5566.107 7.655e-17 1.529e-17
5567.181 6.741e-17 1.487e-17
5568.255 5.769e-17 1.456e-17
5569.328 7.028e-17 1.494e-17
5570.402 7.652e-17 1.504e-17
5571.475 7.251e-17 1.469e-17
5572.549 7.284e-17 1.503e-17
5573.622 5.628e-17 1.627e-17
5574.696 6.194e-17 1.864e-17
5575.769 1.064e-16 2.158e-17
5576.842 8.925e-17 2.311e-17
5577.916 4.987e-17 2.441e-17
5578.989 8.768e-17 2.545e-17
5580.063 1.246e-16 2.527e-17
5581.135 9.791e-17 2.322e-17
5582.209 6.446e-17 2.055e-17
5583.282 5.692e-17 1.9e-17
5584.355 6.052e-17 1.785e-17
5585.428 7.532e-17 1.685e-17
5586.501 8.786e-17 1.625e-17
5587.574 9.215e-17 1.578e-17
5588.647 7.853e-17 1.525e-17
5589.72 6.493e-17 1.475e-17
5590.793 6.441e-17 1.453e-17
5591.865 7.564e-17 1.451e-17
5592.938 8.119e-17 1.462e-17
5594.011 8.669e-17 1.437e-17
5595.084 6.696e-17 1.404e-17
5596.156 6.642e-17 1.397e-17
5597.229 6.982e-17 1.434e-17
5598.302 7.009e-17 1.422e-17
5599.374 6.249e-17 1.411e-17
5600.447 5.924e-17 1.39e-17
5601.519 5.708e-17 1.395e-17
5602.591 7.452e-17 1.408e-17
5603.664 7.648e-17 1.43e-17
5604.736 7.532e-17 1.425e-17
5605.809 7.012e-17 1.434e-17
5606.881 9.545e-17 1.437e-17
5607.953 9.76e-17 1.45e-17
5609.026 6.929e-17 1.384e-17
5610.097 6.349e-17 1.384e-17
5611.169 7.805e-17 1.413e-17
5612.242 7.948e-17 1.406e-17
5613.314 7.862e-17 1.391e-17
5614.385 6.988e-17 1.396e-17
5615.458 7.739e-17 1.384e-17
5616.53 7.584e-17 1.384e-17
5617.601 7.839e-17 1.372e-17
5618.673 7.229e-17 1.361e-17
5619.745 6.311e-17 1.359e-17
5620.817 7.513e-17 1.37e-17
5621.888 8.612e-17 1.381e-17
5622.96 7.783e-17 1.373e-17
5624.032 7.996e-17 1.367e-17
5625.103 8.948e-17 1.37e-17
5626.055 7.483e-17 1.167e-17
5627.575 7.63e-17 1.18e-17
5629.094 6.541e-17 1.161e-17
5630.614 6.161e-17 1.146e-17
5632.134 8.822e-17 1.17e-17
5633.653 6.589e-17 1.14e-17
5635.173 4.793e-17 1.136e-17
5636.692 8.284e-17 1.142e-17
5638.212 6.907e-17 1.145e-17
5639.732 8.289e-17 1.162e-17
5641.251 9.964e-17 1.17e-17
5642.771 5.736e-17 1.129e-17
5644.29 9.234e-17 1.168e-17
5645.811 7.976e-17 1.158e-17
5647.331 8.143e-17 1.155e-17
5648.85 8.641e-17 1.158e-17
5650.37 7.162e-17 1.142e-17
5651.89 7.688e-17 1.143e-17
5653.41 6.381e-17 1.117e-17
5654.93 5.648e-17 1.109e-17
5656.45 7.983e-17 1.127e-17
5657.97 6.594e-17 1.106e-17
5659.49 6.76e-17 1.103e-17
5661.01 8.57e-17 1.125e-17
5662.529 7.265e-17 1.108e-17
5664.05 8.8e-17 1.118e-17
5665.57 7.651e-17 1.119e-17
5667.09 6.28e-17 1.097e-17
5668.611 7.623e-17 1.124e-17
5670.13 8.276e-17 1.119e-17
5671.651 7.608e-17 1.117e-17
5673.171 8.416e-17 1.14e-17
5674.691 7.394e-17 1.121e-17
5676.212 8.999e-17 1.118e-17
5677.732 6.765e-17 1.097e-17
5679.252 7.831e-17 1.115e-17
5680.773 9.231e-17 1.128e-17
5682.293 7.831e-17 1.111e-17
5683.814 7.689e-17 1.118e-17
5685.333 6.115e-17 1.115e-17
5686.854 9.312e-17 1.156e-17
5688.375 8.194e-17 1.138e-17
5689.895 9.34e-17 1.148e-17
5691.416 1.041e-16 1.15e-17
5692.936 7.635e-17 1.127e-17
5694.457 7.043e-17 1.112e-17
5695.978 8.569e-17 1.113e-17
5697.498 7.47e-17 1.089e-17
5699.019 9.067e-17 1.099e-17
5700.539 8.18e-17 1.092e-17
5702.06 7.953e-17 1.08e-17
5703.58 8.352e-17 1.06e-17
5705.102 8.739e-17 1.064e-17
5706.623 7.033e-17 1.053e-17
5708.143 8.898e-17 1.061e-17
5709.664 6.805e-17 1.037e-17
5711.184 7.623e-17 1.048e-17
5712.706 6.99e-17 1.04e-17
5714.227 7.741e-17 1.052e-17
5715.747 5.956e-17 1.03e-17
5717.269 8.581e-17 1.038e-17
5718.789 6.414e-17 1.025e-17
5720.311 1.01e-16 1.053e-17
5721.832 8.372e-17 1.035e-17
5723.352 8.067e-17 1.027e-17
5724.874 1.004e-16 1.059e-17
5726.394 6.888e-17 1.018e-17
5727.916 1.021e-16 1.046e-17
5729.437 7.558e-17 1.032e-17
5730.958 7.863e-17 1.022e-17
5732.48 6.219e-17 1.013e-17
5734.0 7.476e-17 1.018e-17
5735.522 9.443e-17 1.04e-17
5737.044 7.585e-17 1.009e-17
5738.564 8.884e-17 1.035e-17
5740.086 8.187e-17 1.032e-17
5741.607 7.774e-17 1.012e-17
5743.128 6.6e-17 1.001e-17
5744.65 5.986e-17 1.002e-17
5746.171 7.451e-17 1.018e-17
5747.693 9.17e-17 1.033e-17
5749.214 9.764e-17 1.033e-17
5750.736 8.982e-17 1.021e-17
5752.257 7.168e-17 1.002e-17
5753.778 7.557e-17 1.003e-17
5755.3 7.843e-17 1.02e-17
5756.821 8.834e-17 1.023e-17
5758.343 8.729e-17 1.022e-17
5759.864 6.803e-17 1.003e-17
5761.387 8.435e-17 1.023e-17
5762.909 7.752e-17 1.014e-17
5764.43 7.533e-17 1.008e-17
5765.952 7.275e-17 1.024e-17
5767.473 9.431e-17 1.057e-17
5768.995 8.377e-17 1.062e-17
5770.517 9.434e-17 1.065e-17
5772.039 8.125e-17 1.059e-17
5773.561 9.188e-17 1.057e-17
5775.082 6.65e-17 1.017e-17
5776.604 8.527e-17 1.03e-17
5778.127 7.067e-17 1.017e-17
5779.648 7.149e-17 1.003e-17
5781.17 7.937e-17 1.017e-17
5782.692 8.051e-17 1.003e-17
5784.214 7.684e-17 9.967e-18
5785.737 8.175e-17 1.01e-17
5787.258 8.816e-17 1.028e-17
5788.781 8.157e-17 1.027e-17
5790.302 5.86e-17 1.026e-17
5791.825 9.435e-17 1.055e-17
5793.346 8.998e-17 1.042e-17
5794.869 8.174e-17 1.027e-17
5796.391 6.064e-17 1.005e-17
5797.913 8.237e-17 1.005e-17
5799.436 6.966e-17 9.911e-18
5800.957 8.93e-17 1.01e-17
5802.48 6.964e-17 9.908e-18
5804.003 5.787e-17 9.695e-18
5805.524 6.836e-17 9.78e-18
5807.047 9.486e-17 9.975e-18
5808.569 8.297e-17 9.961e-18
5810.092 7.931e-17 9.871e-18
5811.615 7.523e-17 9.884e-18
5813.137 7.166e-17 9.854e-18
5814.659 7.303e-17 9.687e-18
5816.181 9.173e-17 1.003e-17
5817.704 6.89e-17 9.737e-18
5819.227 6.989e-17 9.868e-18
5820.749 6.565e-17 9.84e-18
5822.272 8.584e-17 9.916e-18
5823.794 8.04e-17 9.983e-18
5825.317 7.388e-17 9.86e-18
5826.84 8.748e-17 9.901e-18
5828.362 6.508e-17 9.788e-18
5829.886 5.746e-17 9.771e-18
5831.408 5.351e-17 9.626e-18
5832.931 9.283e-17 9.936e-18
5834.453 6.644e-17 9.847e-18
5835.976 7.426e-17 9.825e-18
5837.5 5.943e-17 9.682e-18
5839.022 8.717e-17 9.98e-18
5840.545 7.862e-17 9.812e-18
5842.067 8.417e-17 9.891e-18
5843.591 7.987e-17 9.947e-18
5845.114 7.704e-17 9.909e-18
5846.636 5.878e-17 9.679e-18
5848.16 8.636e-17 9.959e-18
5849.682 8.409e-17 9.964e-18
5851.206 8.843e-17 1e-17
5852.729 9.142e-17 1.011e-17
5854.252 7.07e-17 9.704e-18
5855.775 6.345e-17 9.764e-18
5857.298 7.203e-17 9.873e-18
5858.821 5.303e-17 9.665e-18
5860.345 5.613e-17 9.731e-18
5861.868 5.812e-17 9.671e-18
5863.391 7.942e-17 1.009e-17
5864.914 7.75e-17 1.014e-17
5866.438 7.68e-17 1.042e-17
5867.96 5.994e-17 1.039e-17
5869.484 7.947e-17 1.047e-17
5871.008 7.796e-17 1.051e-17
5872.531 8.801e-17 1.039e-17
5874.054 5.771e-17 1e-17
5875.577 7.596e-17 1.016e-17
5877.101 8.001e-17 1.012e-17
5878.625 7.594e-17 1.002e-17
5880.148 7.63e-17 9.959e-18
5881.672 9.147e-17 1.002e-17
5883.195 8.39e-17 9.907e-18
5884.719 6.827e-17 9.945e-18
5886.243 4.142e-17 1.055e-17
5887.766 9.891e-17 1.277e-17
5889.29 7.064e-17 1.388e-17
5890.813 1.196e-16 1.48e-17
5892.337 1.025e-16 1.509e-17
5893.861 9.882e-17 1.49e-17
5895.384 4.766e-17 1.422e-17
5896.908 6.989e-17 1.419e-17
5898.431 8.476e-17 1.386e-17
5899.955 8.081e-17 1.242e-17
5901.48 8.465e-17 1.135e-17
5903.003 7.248e-17 1.062e-17
5904.527 6.7e-17 1.024e-17
5906.05 6.143e-17 9.888e-18
5907.575 6.284e-17 9.833e-18
5909.098 6.232e-17 9.711e-18
5910.622 6.829e-17 9.821e-18
5912.147 8.998e-17 1.001e-17
5913.67 5.714e-17 9.959e-18
5915.195 9.148e-17 1.026e-17
5916.718 6.194e-17 9.972e-18
5918.243 6.986e-17 1.002e-17
5919.767 8.787e-17 1.007e-17
5921.291 5.789e-17 9.613e-18
5922.815 6.193e-17 9.73e-18
5924.339 7.101e-17 9.926e-18
5925.863 5.846e-17 9.775e-18
5927.388 8.07e-17 9.895e-18
5928.911 7.481e-17 9.793e-18
5930.436 8.55e-17 9.983e-18
5931.96 9.648e-17 1.016e-17
5933.484 7.908e-17 1.017e-17
5935.009 7.928e-17 1.011e-17
5936.533 7.558e-17 9.954e-18
5938.058 8.134e-17 9.949e-18
5939.581 8.334e-17 9.798e-18
5941.106 7.326e-17 9.713e-18
5942.63 6.264e-17 9.488e-18
5944.155 8.165e-17 9.674e-18
5945.68 6.859e-17 9.631e-18
5947.204 8.37e-17 9.823e-18
5948.729 9.131e-17 9.869e-18
5950.253 4.785e-17 9.49e-18
5951.778 7.13e-17 9.939e-18
5953.303 8.749e-17 1.007e-17
5954.827 8.377e-17 1.007e-17
5956.352 7.263e-17 9.964e-18
5957.876 8.321e-17 9.881e-18
5959.401 8.645e-17 9.775e-18
5960.926 7.818e-17 9.716e-18
5962.45 6.137e-17 9.417e-18
5963.975 1.003e-16 9.737e-18
5965.499 6.99e-17 9.549e-18
5967.024 8.436e-17 9.714e-18
5968.55 6.011e-17 9.475e-18
5970.074 5.652e-17 9.461e-18
5971.599 8.455e-17 9.774e-18
5973.123 7.427e-17 9.713e-18
5974.649 8.621e-17 9.733e-18
5976.174 7.352e-17 9.634e-18
5977.698 6.448e-17 9.678e-18
5979.224 7.985e-17 9.736e-18
5980.748 7.986e-17 9.801e-18
5982.274 7.112e-17 9.526e-18
5983.798 1.096e-16 9.84e-18
5985.323 5.907e-17 9.462e-18
5986.849 8.871e-17 9.646e-18
5988.373 9.46e-17 9.576e-18
5989.899 7.781e-17 9.468e-18
5991.424 7.551e-17 9.564e-18
5992.949 7.277e-17 9.429e-18
5994.475 8.291e-17 9.542e-18
5995.999 7.328e-17 9.502e-18
5997.525 7.727e-17 9.566e-18
5999.05 6.471e-17 9.471e-18
6000.575 6.632e-17 9.45e-18
6002.101 6.599e-17 9.447e-18
6003.626 9.002e-17 9.646e-18
6005.152 9.07e-17 9.691e-18
6006.676 5.538e-17 9.357e-18
6008.202 6.625e-17 9.471e-18
6009.728 6.039e-17 9.347e-18
6011.253 6.477e-17 9.263e-18
6012.779 7.974e-17 9.325e-18
6014.303 1.035e-16 9.59e-18
6015.829 8.043e-17 9.405e-18
6017.354 7.885e-17 9.441e-18
6018.88 7.206e-17 9.366e-18
6020.406 9.857e-17 9.486e-18
6021.931 8.802e-17 9.515e-18
6023.457 8.825e-17 9.469e-18
6024.982 8.398e-17 9.441e-18
6026.508 8.387e-17 9.48e-18
6028.034 8.228e-17 9.502e-18
6029.56 8.342e-17 9.373e-18
6031.086 7.426e-17 9.392e-18
6032.611 7.998e-17 9.473e-18
6034.137 7.866e-17 9.444e-18
6035.663 6.686e-17 9.396e-18
6037.188 7.73e-17 9.363e-18
6038.715 6.818e-17 9.286e-18
6040.24 6.812e-17 9.265e-18
6041.766 6.521e-17 9.238e-18
6043.292 8.061e-17 9.353e-18
6044.818 8.062e-17 9.355e-18
6046.344 9.204e-17 9.414e-18
6047.869 7.888e-17 9.226e-18
6049.396 8.432e-17 9.249e-18
6050.921 8.063e-17 9.295e-18
6052.448 9.547e-17 9.437e-18
6053.974 7.708e-17 9.243e-18
6055.5 7.265e-17 9.205e-18
6057.026 5.849e-17 9.029e-18
6058.552 8.413e-17 9.294e-18
6060.078 6.501e-17 9.155e-18
6061.605 7.819e-17 9.227e-18
6063.13 8.189e-17 9.287e-18
6064.657 7.199e-17 9.186e-18
6066.183 8.56e-17 9.314e-18
6067.709 8.637e-17 9.367e-18
6069.236 6.818e-17 9.156e-18
6070.762 8.696e-17 9.3e-18
6072.288 8.045e-17 9.317e-18
6073.814 6.846e-17 9.046e-18
6075.341 7.237e-17 9.148e-18
6076.868 5.478e-17 8.904e-18
6078.393 6.319e-17 8.962e-18
6079.92 8.481e-17 9.188e-18
6081.446 8.458e-17 9.058e-18
6082.973 7.616e-17 9.03e-18
6084.499 8.425e-17 9.035e-18
6086.026 6.207e-17 8.906e-18
6087.553 8.349e-17 9.023e-18
6089.079 7.022e-17 8.965e-18
6090.606 9.409e-17 9.12e-18
6092.132 9.338e-17 9.094e-18
6093.659 7.522e-17 8.939e-18
6095.186 8.009e-17 8.971e-18
6096.712 8.419e-17 9.057e-18
6098.239 7.143e-17 8.944e-18
6099.765 8.088e-17 9.079e-18
6101.292 8.899e-17 9.172e-18
6102.819 6.02e-17 8.887e-18
6104.345 6.493e-17 8.952e-18
6105.872 9.164e-17 9.153e-18
6107.399 9e-17 9.178e-18
6108.926 7.943e-17 9.151e-18
6110.452 8.897e-17 9.288e-18
6111.979 7.776e-17 9.199e-18
6113.507 9.545e-17 9.395e-18
6115.033 5.831e-17 9.135e-18
6116.56 8.324e-17 9.191e-18
6118.087 9.329e-17 9.19e-18
6119.614 8.674e-17 9.11e-18
6121.142 8.807e-17 8.954e-18
6122.668 9.106e-17 8.971e-18
6124.195 7.916e-17 8.806e-18
6125.722 7.536e-17 8.698e-18
6127.249 6.854e-17 8.681e-18
6128.777 7.992e-17 8.78e-18
6130.303 7.171e-17 8.659e-18
6131.831 5.487e-17 8.519e-18
6133.358 8.258e-17 8.78e-18
6134.885 8.316e-17 8.798e-18
6136.413 6.263e-17 8.623e-18
6137.939 8.571e-17 8.824e-18
6139.467 8.376e-17 8.714e-18
6140.994 8.305e-17 8.869e-18
6142.521 9.719e-17 8.965e-18
6144.048 8.394e-17 8.951e-18
6145.576 7.998e-17 8.749e-18
6147.104 7.45e-17 8.677e-18
6148.63 6.901e-17 8.702e-18
6150.158 8.149e-17 8.691e-18
6151.685 8.313e-17 8.568e-18
6153.213 7.547e-17 8.564e-18
6154.741 7.878e-17 8.61e-18
6156.268 8.116e-17 8.629e-18
6157.796 6.898e-17 8.574e-18
6159.323 7.539e-17 8.504e-18
6160.851 6.932e-17 8.546e-18
6162.378 8.111e-17 8.661e-18
6163.905 8.131e-17 8.556e-18
6165.434 6.705e-17 8.38e-18
6166.961 7.101e-17 8.433e-18
6168.489 7.243e-17 8.504e-18
6170.017 6.716e-17 8.473e-18
6171.544 7.66e-17 8.697e-18
6173.072 7.71e-17 8.645e-18
6174.599 6.507e-17 8.507e-18
6176.127 7.579e-17 8.553e-18
6177.654 7.738e-17 8.391e-18
6179.183 8.382e-17 8.54e-18
6180.711 8.823e-17 8.498e-18
6182.238 9.094e-17 8.578e-18
6183.766 8.12e-17 8.422e-18
6185.294 9.045e-17 8.466e-18
6186.822 7.058e-17 8.365e-18
6188.35 8.185e-17 8.394e-18
6189.878 7.409e-17 8.379e-18
6191.406 7.957e-17 8.375e-18
6192.933 7.691e-17 8.467e-18
6194.462 8.115e-17 8.502e-18
6195.99 7.498e-17 8.43e-18
6197.518 9.11e-17 8.52e-18
6199.046 8.084e-17 8.557e-18
6200.574 6.276e-17 8.377e-18
6202.102 8.793e-17 8.673e-18
6203.631 7.021e-17 8.54e-18
6205.158 7.056e-17 8.585e-18
6206.687 7.084e-17 8.438e-18
6208.214 6.25e-17 8.285e-18
6209.743 6.574e-17 8.445e-18
6211.271 6.902e-17 8.453e-18
6212.799 6.9e-17 8.47e-18
6214.328 7.052e-17 8.327e-18
6215.856 7.541e-17 8.411e-18
6217.385 7.828e-17 8.389e-18
6218.912 9.03e-17 8.553e-18
6220.441 5.856e-17 8.365e-18
6221.97 7.298e-17 8.538e-18
6223.498 7.191e-17 8.561e-18
6225.026 8.425e-17 8.628e-18
6226.554 7.66e-17 8.453e-18
6228.083 7.23e-17 8.346e-18
6229.612 9.111e-17 8.446e-18
6231.14 8.204e-17 8.48e-18
6232.669 7.986e-17 8.689e-18
6234.197 9.126e-17 9.084e-18
6235.726 7.322e-17 9.29e-18
6237.254 8.722e-17 9.49e-18
6238.783 7.195e-17 9.31e-18
6240.312 7.807e-17 9.186e-18
6241.84 7.524e-17 8.911e-18
6243.369 7.982e-17 8.813e-18
6244.897 9.132e-17 8.796e-18
6246.426 7.889e-17 8.562e-18
6247.955 7.97e-17 8.521e-18
6249.483 6.739e-17 8.321e-18
6251.013 7.15e-17 8.391e-18
6252.541 6.7e-17 8.252e-18
6254.07 6.272e-17 8.2e-18
6255.599 8.826e-17 8.772e-18
6257.128 7.242e-17 8.984e-18
6258.657 7.599e-17 9.028e-18
6260.185 7.722e-17 9.178e-18
6261.714 7.672e-17 8.92e-18
6263.244 6.296e-17 8.764e-18
6264.772 6.928e-17 8.686e-18
6266.302 7.591e-17 8.605e-18
6267.83 8.01e-17 8.56e-18
6269.359 6.271e-17 8.391e-18
6270.888 8.081e-17 8.343e-18
6272.417 8.654e-17 8.524e-18
6273.947 6.851e-17 8.376e-18
6275.475 7.35e-17 8.669e-18
6277.005 7.557e-17 8.82e-18
6278.533 6.789e-17 8.643e-18
6280.063 6.731e-17 8.49e-18
6281.592 8.257e-17 8.275e-18
6283.121 6.984e-17 8.24e-18
6284.651 7.533e-17 8.601e-18
6286.179 7.947e-17 8.752e-18
6287.709 7.562e-17 8.934e-18
6289.239 7.581e-17 8.919e-18
6290.767 6.667e-17 8.751e-18
6292.297 7.317e-17 8.425e-18
6293.826 6.921e-17 8.366e-18
6295.356 7.151e-17 8.42e-18
6296.884 4.877e-17 9.484e-18
6298.414 7.118e-17 1.244e-17
6299.944 7.281e-17 1.396e-17
6301.473 6.736e-17 1.446e-17
6303.003 7.944e-17 1.427e-17
6304.532 4.62e-17 1.211e-17
6306.061 6.086e-17 1.042e-17
6307.591 4.735e-17 9.439e-18
6309.12 8.047e-17 9.154e-18
6310.65 7.098e-17 8.719e-18
6312.179 7.936e-17 8.508e-18
6313.709 6.634e-17 8.044e-18
6315.239 7.207e-17 7.845e-18
6316.768 6.497e-17 7.969e-18
6318.298 6.999e-17 7.81e-18
6319.827 5.404e-17 7.866e-18
6321.358 7.037e-17 8.138e-18
6322.887 6.636e-17 8.16e-18
6324.417 8.166e-17 8.188e-18
6325.947 7.243e-17 8.043e-18
6327.476 5.679e-17 8.043e-18
6329.006 6.842e-17 8.268e-18
6330.536 3.973e-17 8.313e-18
6332.066 6.981e-17 8.44e-18
6333.596 5.829e-17 8.114e-18
6335.125 7.302e-17 7.935e-18
6336.656 7.51e-17 7.76e-18
6338.185 6.368e-17 7.742e-18
6339.715 7.336e-17 7.777e-18
6341.246 6.03e-17 7.636e-18
6342.775 6.671e-17 7.718e-18
6344.305 5.321e-17 7.542e-18
6345.835 7.739e-17 7.83e-18
6347.365 6.572e-17 7.82e-18
6348.896 6.371e-17 7.812e-18
6350.425 7.316e-17 7.903e-18
6351.956 7.069e-17 7.856e-18
6353.485 7.65e-17 7.937e-18
6355.016 8.321e-17 8.064e-18
6356.545 7.264e-17 8.096e-18
6358.076 7.669e-17 8.214e-18
6359.606 6.476e-17 8.161e-18
6361.136 7.503e-17 8.819e-18
6362.667 9.185e-17 9.691e-18
6364.196 9.432e-17 1.028e-17
6365.727 8.344e-17 1.028e-17
6367.258 8.133e-17 9.742e-18
6368.787 5.132e-17 8.491e-18
6370.318 7.298e-17 8.113e-18
6371.848 6.887e-17 7.707e-18
6373.379 7.418e-17 7.76e-18
6374.909 8.14e-17 7.815e-18
6376.439 6.868e-17 7.684e-18
6377.97 6.912e-17 7.757e-18
6379.5 7.652e-17 7.871e-18
6381.031 7.267e-17 7.847e-18
6382.561 7.98e-17 7.822e-18
6384.092 9.856e-17 8.037e-18
6385.623 6.931e-17 7.878e-18
6387.152 6.931e-17 7.954e-18
6388.683 6.46e-17 7.897e-18
6390.213 6.525e-17 7.795e-18
6391.744 7.651e-17 7.823e-18
6393.275 7.543e-17 7.74e-18
6394.806 6.688e-17 7.655e-18
6396.337 7.376e-17 7.674e-18
6397.867 7.387e-17 7.734e-18
6399.398 5.838e-17 7.595e-18
6400.929 8.124e-17 7.785e-18
6402.459 8.402e-17 7.808e-18
6403.99 7.061e-17 7.818e-18
6405.52 6.23e-17 7.707e-18
6407.052 8.643e-17 7.82e-18
6408.582 7.478e-17 7.633e-18
6410.113 7.93e-17 7.659e-18
6411.644 7.813e-17 7.733e-18
6413.174 7.838e-17 7.772e-18
6414.706 6.148e-17 7.727e-18
6416.236 6.74e-17 7.719e-18
6417.767 6.707e-17 7.754e-18
6419.299 8.184e-17 7.952e-18
6420.829 7.786e-17 7.922e-18
6422.361 7.993e-17 8.027e-18
6423.891 8.82e-17 7.959e-18
6425.422 7.83e-17 7.906e-18
6426.954 6.676e-17 7.733e-18
6428.484 8.287e-17 7.857e-18
6430.016 5.771e-17 7.601e-18
6431.546 6.075e-17 7.635e-18
6433.078 8.848e-17 7.807e-18
6434.608 8.188e-17 7.781e-18
6436.14 7.26e-17 7.647e-18
6437.671 7.659e-17 7.667e-18
6439.202 6.149e-17 7.542e-18
6440.734 6.863e-17 7.62e-18
6442.264 5.092e-17 7.487e-18
6443.796 8.068e-17 7.77e-18
6445.328 7.71e-17 7.726e-18
6446.858 6.625e-17 7.727e-18
6448.39 7.185e-17 7.703e-18
6449.921 7.832e-17 7.755e-18
6451.452 7.432e-17 7.747e-18
6452.984 7.902e-17 7.797e-18
6454.515 7.293e-17 7.666e-18
6456.047 7.181e-17 7.757e-18
6457.578 6.475e-17 7.661e-18
6459.109 7.883e-17 7.729e-18
6460.64 7.152e-17 7.765e-18
6462.172 7.414e-17 7.826e-18
6463.704 9.686e-17 8.22e-18
6465.235 5.862e-17 8.012e-18
6466.767 7.882e-17 8.298e-18
6468.298 8.244e-17 8.313e-18
6469.83 6.906e-17 8.32e-18
6471.362 7.652e-17 8.262e-18
6472.893 8.607e-17 8.221e-18
6474.425 7.163e-17 8.003e-18
6475.956 8.571e-17 7.911e-18
6477.488 6.249e-17 7.62e-18
6479.02 6.58e-17 7.608e-18
6480.551 7.074e-17 7.658e-18
6482.083 6.505e-17 7.541e-18
6483.614 7.82e-17 7.605e-18
6485.147 5.874e-17 7.346e-18
6486.678 7.525e-17 7.539e-18
6488.21 7.225e-17 7.475e-18
6489.742 7.712e-17 7.585e-18
6491.273 6.977e-17 7.501e-18
6492.806 6.917e-17 7.46e-18
6494.337 7.305e-17 7.537e-18
6495.869 8.321e-17 7.888e-18
6497.402 9.029e-17 8.358e-18
6498.933 7.895e-17 8.525e-18
6500.465 7.689e-17 8.569e-18
6501.997 7.325e-17 8.431e-18
6503.529 8.699e-17 8.278e-18
6505.061 5.7e-17 7.831e-18
6506.593 8.416e-17 7.982e-18
6508.125 7.575e-17 7.884e-18
6509.657 7.125e-17 7.67e-18
6511.189 5.977e-17 7.378e-18
6512.721 7.276e-17 7.488e-18
6514.253 7.351e-17 7.474e-18
6515.786 7.522e-17 7.567e-18
6517.317 6.769e-17 7.441e-18
6518.85 5.867e-17 7.292e-18
6520.381 6.231e-17 7.395e-18
6521.914 7.04e-17 7.541e-18
6523.447 6.742e-17 7.645e-18
6524.978 6.894e-17 7.618e-18
6526.511 7.755e-17 7.594e-18
6528.043 7.64e-17 7.548e-18
6529.575 6.016e-17 7.466e-18
6531.108 6.93e-17 7.816e-18
6532.64 7.875e-17 8.225e-18
6534.172 7.067e-17 8.3e-18
6535.704 7.304e-17 8.214e-18
6537.237 6.026e-17 7.792e-18
6538.769 7.427e-17 7.594e-18
6540.302 7.38e-17 7.378e-18
6541.835 7.668e-17 7.546e-18
6543.366 8.437e-17 7.679e-18
6544.899 7.152e-17 7.59e-18
6546.431 6.463e-17 7.52e-18
6547.964 5.347e-17 7.295e-18
6549.497 6.37e-17 7.359e-18
6551.029 7.431e-17 7.661e-18
6552.562 9.222e-17 8.166e-18
6554.094 6.611e-17 8.163e-18
6555.627 5.953e-17 8.086e-18
6557.16 7.116e-17 7.914e-18
6558.692 7.402e-17 7.533e-18
6560.225 6.212e-17 7.537e-18
6561.757 7.304e-17 8.011e-18
6563.29 8.032e-17 8.187e-18
6564.822 6.512e-17 8.062e-18
6566.355 8.6e-17 8.028e-18
6567.889 6.938e-17 7.544e-18
6569.421 7.63e-17 7.455e-18
6570.954 6.603e-17 7.266e-18
6572.486 8.117e-17 7.304e-18
6574.019 7.491e-17 7.203e-18
6575.553 8.293e-17 7.478e-18
6577.085 8.156e-17 7.662e-18
6578.618 6.609e-17 7.577e-18
6580.15 8.51e-17 7.702e-18
6581.684 7.652e-17 7.325e-18
6583.217 7.168e-17 7.041e-18
6584.749 7.312e-17 6.959e-18
6586.283 7.781e-17 7.036e-18
6587.815 6.931e-17 6.861e-18
6589.349 6.938e-17 6.864e-18
6590.881 7.38e-17 6.86e-18
6592.414 6.33e-17 6.798e-18
6593.948 6.687e-17 6.853e-18
6595.48 6.657e-17 6.89e-18
6597.014 6.947e-17 7.051e-18
6598.546 6.18e-17 6.876e-18
6600.08 7.463e-17 6.966e-18
6601.613 6.926e-17 6.952e-18
6603.146 6.408e-17 7.014e-18
6604.68 8.033e-17 7.243e-18
6606.212 6.854e-17 7.106e-18
6607.746 7.938e-17 7.072e-18
6609.279 6.633e-17 6.883e-18
6610.812 5.328e-17 6.636e-18
6612.346 5.957e-17 6.723e-18
6613.878 6.519e-17 6.806e-18
6615.412 7.545e-17 6.879e-18
6616.945 5.972e-17 6.771e-18
6618.479 6.876e-17 6.864e-18
6620.012 7.551e-17 6.903e-18
6621.545 6.357e-17 6.758e-18
6623.079 5.449e-17 6.739e-18
6624.612 6.702e-17 6.862e-18
6626.145 5.668e-17 6.724e-18
6627.679 5.216e-17 6.757e-18
6629.212 6.845e-17 6.887e-18
6630.746 4.78e-17 6.627e-18
6632.279 6.065e-17 6.771e-18
6633.813 6.609e-17 6.9e-18
6635.347 8.195e-17 7.014e-18
6636.88 7.38e-17 6.877e-18
6638.414 6.83e-17 6.855e-18
6639.947 7.658e-17 6.921e-18
6641.481 7.436e-17 6.845e-18
6643.014 7.354e-17 6.782e-18
6644.548 7.433e-17 6.788e-18
6646.082 6.732e-17 6.703e-18
6647.615 6.615e-17 6.824e-18
6649.149 6.325e-17 6.791e-18
6650.682 5.659e-17 6.693e-18
6652.216 6.248e-17 6.723e-18
6653.75 6.517e-17 6.784e-18
6655.283 7.404e-17 6.868e-18
6656.818 7.284e-17 6.888e-18
6658.351 6.923e-17 6.891e-18
6659.885 7.584e-17 6.953e-18
6661.419 6.236e-17 6.77e-18
6662.953 6.113e-17 6.834e-18
6664.487 7.581e-17 6.963e-18
6666.02 6.992e-17 6.861e-18
6667.554 7.971e-17 6.975e-18
6669.088 6.365e-17 6.858e-18
6670.622 6.283e-17 6.835e-18
6672.156 5.961e-17 6.78e-18
6673.69 8.25e-17 6.906e-18
6675.224 6.347e-17 6.819e-18
6676.757 6.364e-17 6.777e-18
6678.292 7.032e-17 6.776e-18
6679.826 7.752e-17 6.848e-18
6681.36 7.097e-17 6.843e-18
6682.894 5.72e-17 6.707e-18
6684.428 6.123e-17 6.776e-18
6685.962 5.831e-17 6.775e-18
6687.496 6.107e-17 6.731e-18
6689.03 6.072e-17 6.803e-18
6690.565 5.218e-17 6.723e-18
6692.098 6.01e-17 6.784e-18
6693.633 6.737e-17 6.817e-18
6695.167 7.543e-17 7.029e-18
6696.701 6.756e-17 6.951e-18
6698.236 5.609e-17 6.857e-18
6699.77 7.287e-17 6.913e-18
6701.304 6.589e-17 6.961e-18
6702.838 7.763e-17 7.04e-18
6704.373 5.108e-17 6.816e-18
6705.907 6.723e-17 6.949e-18
6707.441 6.294e-17 6.887e-18
6708.976 6.116e-17 6.876e-18
6710.51 6.637e-17 6.802e-18
6712.044 7.401e-17 6.854e-18
6713.578 7.614e-17 6.857e-18
6715.113 6.952e-17 6.756e-18
6716.648 6.539e-17 6.677e-18
6718.182 5.791e-17 6.633e-18
6719.717 7.024e-17 6.652e-18
6721.251 6.759e-17 6.665e-18
6722.785 6.097e-17 6.592e-18
6724.32 6.085e-17 6.591e-18
6725.854 6.667e-17 6.629e-18
6727.389 7.123e-17 6.722e-18
6728.923 7.134e-17 6.764e-18
6730.458 7.319e-17 6.766e-18
6731.993 7.293e-17 6.782e-18
6733.527 7.254e-17 6.743e-18
6735.062 6.541e-17 6.638e-18
6736.596 6.725e-17 6.668e-18
6738.131 7.663e-17 6.763e-18
6739.666 4.923e-17 6.548e-18
6741.201 7.568e-17 6.714e-18
6742.736 6.732e-17 6.707e-18
6744.27 7.553e-17 6.757e-18
6745.805 7.041e-17 6.761e-18
6747.339 6.279e-17 6.665e-18
6748.874 7.86e-17 6.759e-18
6750.41 6.146e-17 6.648e-18
6751.944 7.03e-17 6.714e-18
6753.479 6.717e-17 6.614e-18
6755.013 6.15e-17 6.548e-18
6756.549 7.833e-17 6.731e-18
6758.084 6.195e-17 6.555e-18
6759.618 7.283e-17 6.671e-18
6761.154 5.04e-17 6.405e-18
6762.688 6.442e-17 6.591e-18
6764.223 6.698e-17 6.593e-18
6765.758 7.87e-17 6.632e-18
6767.293 8.157e-17 6.671e-18
6768.829 8.604e-17 6.693e-18
6770.363 9.021e-17 6.778e-18
6771.898 6.317e-17 6.464e-18
6773.433 7.075e-17 6.529e-18
6774.968 6.484e-17 6.47e-18
6776.504 7.671e-17 6.595e-18
6778.038 7.432e-17 6.529e-18
6779.574 7.098e-17 6.535e-18
6781.108 6.178e-17 6.49e-18
6782.644 7.104e-17 6.47e-18
6784.179 7.834e-17 6.575e-18
6785.714 6.978e-17 6.479e-18
6787.25 6.86e-17 6.504e-18
6788.784 6.291e-17 6.383e-18
6790.32 5.925e-17 6.452e-18
6791.855 7.93e-17 6.555e-18
6793.39 7.506e-17 6.469e-18
6794.926 7.233e-17 6.48e-18
6796.461 7.047e-17 6.439e-18
6797.996 6.806e-17 6.349e-18
6799.531 5.539e-17 6.302e-18
6801.067 7.806e-17 6.486e-18
6802.603 8.402e-17 6.501e-18
6804.138 6.466e-17 6.358e-18
6805.673 6.939e-17 6.391e-18
6807.208 7.319e-17 6.383e-18
6808.744 7.286e-17 6.38e-18
6810.279 7.464e-17 6.437e-18
6811.815 6.297e-17 6.331e-18
6813.351 7.984e-17 6.428e-18
6814.886 6.671e-17 6.339e-18
6816.421 6.626e-17 6.278e-18
6817.956 6.66e-17 6.295e-18
6819.492 8.19e-17 6.454e-18
6821.028 6.4e-17 6.253e-18
6822.563 6.659e-17 6.214e-18
6824.099 6.481e-17 6.273e-18
6825.634 8.102e-17 6.717e-18
6827.17 7.529e-17 7.148e-18
6828.705 6.264e-17 7.561e-18
6830.241 6.963e-17 7.805e-18
6831.778 5.99e-17 7.925e-18
6833.313 6.875e-17 7.997e-18
6834.849 6.977e-17 7.736e-18
6836.384 7.427e-17 7.59e-18
6837.92 6.28e-17 7.14e-18
6839.456 7.305e-17 6.933e-18
6840.991 6.167e-17 6.597e-18
6842.528 7.44e-17 6.669e-18
6844.063 6.191e-17 6.527e-18
6845.599 7.284e-17 6.503e-18
6847.135 6.389e-17 6.334e-18
6848.67 6.867e-17 6.243e-18
6850.207 7.881e-17 6.472e-18
6851.742 7.245e-17 6.328e-18
6853.278 7.004e-17 6.253e-18
6854.814 6.904e-17 6.312e-18
6856.35 5.969e-17 6.16e-18
6857.886 7.414e-17 6.326e-18
6859.422 6.302e-17 6.357e-18
6860.958 7.449e-17 6.944e-18
6862.493 7.219e-17 8.303e-18
6864.03 8.159e-17 9.358e-18
6865.566 8.37e-17 1.08e-17
6867.102 9.59e-17 1.141e-17
6868.638 7.3e-17 1.039e-17
6870.174 5.258e-17 9.04e-18
6871.71 5.423e-17 8.406e-18
6873.247 6.531e-17 8.061e-18
6874.782 6.274e-17 7.509e-18
6876.319 5.92e-17 7.066e-18
6877.854 5.326e-17 6.697e-18
6879.391 6.277e-17 6.635e-18
6880.927 5.937e-17 6.692e-18
6882.463 7.259e-17 7.005e-18
6884.0 7.482e-17 7.243e-18
6885.535 7.989e-17 7.332e-18
6887.072 7.636e-17 7.378e-18
6888.608 7.69e-17 7.573e-18
6890.144 7.791e-17 7.653e-18
6891.681 5.261e-17 7.361e-18
6893.217 6.702e-17 7.284e-18
6894.754 8.283e-17 7.203e-18
6896.289 6.16e-17 6.845e-18
6897.826 6.448e-17 6.863e-18
6899.362 6.376e-17 7.02e-18
6900.899 6.498e-17 7.136e-18
6902.435 7.667e-17 7.372e-18
6903.971 7.164e-17 7.056e-18
6905.508 6.692e-17 6.814e-18
6907.044 7.683e-17 6.764e-18
6908.581 6.191e-17 6.568e-18
6910.118 6.07e-17 6.899e-18
6911.654 8.554e-17 7.23e-18
6913.19 6.247e-17 7.135e-18
6914.726 7.351e-17 7.356e-18
6916.263 6.68e-17 7.045e-18
6917.8 7.649e-17 6.727e-18
6919.336 6.014e-17 6.58e-18
6920.873 6.803e-17 7.083e-18
6922.409 8.266e-17 7.808e-18
6923.946 5.523e-17 7.661e-18
6925.482 8.505e-17 7.908e-18
6927.019 5.545e-17 7.289e-18
6928.556 6.204e-17 6.676e-18
6930.093 7.435e-17 6.611e-18
6931.63 7.206e-17 6.537e-18
6933.166 7.988e-17 6.544e-18
6934.703 7.461e-17 6.525e-18
6936.24 6.041e-17 6.533e-18
6937.776 6.301e-17 6.837e-18
6939.313 7.021e-17 7.115e-18
6940.85 7.97e-17 7.24e-18
6942.387 6.533e-17 7.071e-18
6943.923 7.184e-17 6.802e-18
6945.46 6.375e-17 6.7e-18
6946.998 7.682e-17 7.211e-18
6948.534 7.291e-17 7.804e-18
6950.071 7.165e-17 7.881e-18
6951.607 6.245e-17 7.881e-18
6953.145 6.699e-17 7.346e-18
6954.682 6.543e-17 6.867e-18
6956.218 6.452e-17 6.609e-18
6957.756 5.036e-17 6.41e-18
6959.292 6.889e-17 6.643e-18
6960.829 6.52e-17 6.44e-18
6962.367 7.298e-17 6.515e-18
6963.903 5.502e-17 6.333e-18
6965.441 8.306e-17 6.675e-18
6966.977 6.68e-17 6.667e-18
6968.515 6.735e-17 6.912e-18
6970.051 6.645e-17 6.91e-18
6971.589 6.052e-17 6.833e-18
6973.126 6.282e-17 6.826e-18
6974.663 5.461e-17 6.61e-18
6976.2 6.906e-17 7.04e-18
6977.737 6.641e-17 7.311e-18
6979.274 6.336e-17 7.248e-18
6980.812 6.724e-17 7.363e-18
6982.349 5.946e-17 6.996e-18
6983.886 7.44e-17 6.87e-18
6985.423 5.587e-17 6.516e-18
6986.96 6.059e-17 6.574e-18
6988.497 6.702e-17 6.477e-18
6990.035 6.943e-17 6.59e-18
6991.572 6.894e-17 6.498e-18
6993.109 6.613e-17 6.477e-18
6994.647 7.344e-17 6.538e-18
6996.184 7.173e-17 6.458e-18
6997.721 7.855e-17 6.742e-18
6999.259 6.209e-17 6.47e-18
7000.796 7.054e-17 6.639e-18
7002.334 6.806e-17 6.797e-18
7003.87 7.128e-17 6.681e-18
7005.408 6.287e-17 6.532e-18
7006.946 5.648e-17 6.655e-18
7008.483 6.714e-17 6.658e-18
7010.021 7.288e-17 6.866e-18
7011.558 7.896e-17 6.955e-18
7013.096 7.176e-17 6.94e-18
7014.633 7.222e-17 6.92e-18
7016.17 7.263e-17 6.637e-18
7017.708 6.207e-17 6.35e-18
7019.245 7.121e-17 6.455e-18
7020.783 6.144e-17 6.291e-18
7022.32 6.806e-17 6.394e-18
7023.858 7.438e-17 6.541e-18
7025.396 6.587e-17 6.436e-18
7026.933 6.759e-17 6.378e-18
7028.471 8.765e-17 6.55e-18
7030.008 6.855e-17 6.331e-18
7031.547 8.499e-17 6.558e-18
7033.084 7.02e-17 6.37e-18
7034.622 7.091e-17 6.308e-18
7036.16 6.218e-17 6.208e-18
7037.697 6.051e-17 6.221e-18
7039.235 7.064e-17 6.343e-18
7040.772 6.148e-17 6.136e-18
7042.31 1.016e-16 6.637e-18
7043.849 1.24e-16 6.969e-18
7045.386 1.202e-16 6.821e-18
7046.924 1.236e-16 7.139e-18
7048.461 9.853e-17 6.932e-18
7050.0 9.508e-17 6.994e-18
7051.537 7.432e-17 6.748e-18
7053.075 6.836e-17 6.54e-18
7054.613 5.997e-17 6.419e-18
7056.151 6.334e-17 6.233e-18
7057.689 5.464e-17 6.176e-18
7059.226 6.151e-17 6.173e-18
7060.765 6.215e-17 6.201e-18
7062.303 7.555e-17 6.513e-18
7063.84 7.293e-17 6.399e-18
7065.379 8.817e-17 6.53e-18
7066.916 1.023e-16 6.677e-18
7068.455 9.191e-17 6.528e-18
7069.993 9.504e-17 6.46e-18
7071.531 8.33e-17 6.378e-18
7073.069 7.134e-17 6.201e-18
7074.607 6.213e-17 6.11e-18
7076.145 8.095e-17 6.427e-18
7077.682 6.767e-17 6.125e-18
7079.221 7.364e-17 6.194e-18
7080.76 7.135e-17 6.226e-18
7082.297 6.875e-17 6.135e-18
7083.836 5.302e-17 5.997e-18
7085.373 6.73e-17 6.108e-18
7086.912 6.453e-17 6.183e-18
7088.45 6.947e-17 6.134e-18
7089.988 6.035e-17 6.137e-18
7091.527 6.082e-17 6.155e-18
7093.064 6.98e-17 6.183e-18
7094.603 6.256e-17 6.036e-18
7096.141 6.584e-17 6.078e-18
7097.679 7.14e-17 6.073e-18
7099.218 5.802e-17 5.903e-18
7100.756 6.156e-17 5.9e-18
7102.295 6.216e-17 5.977e-18
7103.832 7.507e-17 5.991e-18
7105.371 7.657e-17 6.023e-18
7106.91 7.686e-17 5.985e-18
7108.448 6.632e-17 5.879e-18
7109.986 6.006e-17 5.846e-18
7111.524 7.12e-17 5.909e-18
7113.063 5.675e-17 5.73e-18
7114.602 7.01e-17 5.929e-18
7116.14 5.966e-17 5.819e-18
7117.679 6.833e-17 5.754e-18
7119.217 6.024e-17 5.798e-18
7120.755 6.52e-17 5.921e-18
7122.293 5.987e-17 5.785e-18
7123.832 4.936e-17 5.67e-18
7125.371 6.136e-17 5.898e-18
7126.909 7.293e-17 5.974e-18
7128.448 5.857e-17 5.816e-18
7129.986 7.162e-17 6.145e-18
7131.525 6.885e-17 5.972e-18
7133.064 5.694e-17 5.877e-18
7134.602 6.997e-17 5.906e-18
7136.141 6.736e-17 5.861e-18
7137.679 6.432e-17 5.769e-18
7139.218 6.08e-17 5.823e-18
7140.756 5.759e-17 5.769e-18
7142.295 6.209e-17 5.848e-18
7143.835 7.162e-17 6.047e-18
7145.373 6.456e-17 5.964e-18
7146.912 7.094e-17 6.027e-18
7148.45 5.98e-17 5.926e-18
7149.989 6.099e-17 5.879e-18
7151.528 6.223e-17 5.944e-18
7153.067 6.417e-17 5.775e-18
7154.606 5.623e-17 5.828e-18
7156.144 5.624e-17 5.747e-18
7157.683 6.24e-17 5.817e-18
7159.221 4.957e-17 5.718e-18
7160.761 7.439e-17 5.887e-18
7162.3 6.575e-17 5.902e-18
7163.838 6.08e-17 5.901e-18
7165.378 6.827e-17 5.992e-18
7166.916 6.194e-17 6.056e-18
7168.455 6.394e-17 6.031e-18
7169.995 6.324e-17 6.074e-18
7171.533 6.505e-17 6.117e-18
7173.072 6.355e-17 6.21e-18
7174.611 6.283e-17 6.164e-18
7176.15 4.52e-17 5.892e-18
7177.689 5.17e-17 6.071e-18
7179.228 7.026e-17 6.121e-18
7180.767 4.968e-17 6.082e-18
7182.306 5.17e-17 6.249e-18
7183.845 5.277e-17 6.375e-18
7185.384 5.798e-17 6.236e-18
7186.923 5.401e-17 6.156e-18
7188.463 6.079e-17 6.284e-18
7190.001 5.236e-17 6.025e-18
7191.541 6.318e-17 6.133e-18
7193.079 7.128e-17 6.131e-18
7194.619 6.15e-17 6.032e-18
7196.158 6.379e-17 6.101e-18
7197.697 6.652e-17 6.335e-18
7199.237 5.651e-17 6.143e-18
7200.775 6.774e-17 6.281e-18
7202.315 6.019e-17 6.248e-18
7203.853 6.391e-17 6.159e-18
7205.393 5.894e-17 5.947e-18
7206.933 6.549e-17 6.021e-18
7208.471 6.979e-17 5.997e-18
7210.011 7.576e-17 6.011e-18
7211.55 7.606e-17 5.947e-18
7213.09 7.102e-17 5.91e-18
7214.629 6.664e-17 5.854e-18
7216.168 5.853e-17 5.687e-18
7217.708 6.01e-17 5.824e-18
7219.247 5.38e-17 5.817e-18
7220.786 6.876e-17 5.935e-18
7222.325 6.226e-17 5.97e-18
7223.865 5.512e-17 5.895e-18
7225.405 7.244e-17 6.067e-18
7226.944 7.763e-17 6.122e-18
7228.483 7.193e-17 6.246e-18
7230.022 7.157e-17 6.357e-18
7231.562 7.157e-17 6.498e-18
7233.102 5.87e-17 6.219e-18
7234.641 4.515e-17 6.159e-18
7236.181 5.157e-17 6.686e-18
7237.72 5.103e-17 7.755e-18
7239.26 6.572e-17 9.066e-18
7240.8 6.377e-17 9.813e-18
7242.339 6.175e-17 1.001e-17
7243.879 5.392e-17 1.02e-17
7245.418 7.398e-17 9.897e-18
7246.958 6.42e-17 9.193e-18
7248.497 5.993e-17 8.565e-18
7250.037 6.69e-17 7.685e-18
7251.577 5.667e-17 7.168e-18
7253.116 5.703e-17 6.994e-18
7254.656 5.3e-17 6.795e-18
7256.195 5.618e-17 6.74e-18
7257.735 6.389e-17 6.502e-18
7259.275 5.726e-17 6.298e-18
7260.814 8.275e-17 6.43e-18
7262.354 5.799e-17 6.186e-18
7263.894 4.804e-17 6.145e-18
7265.434 5.594e-17 6.175e-18
7266.973 5.478e-17 6.166e-18
7268.513 7.955e-17 6.464e-18
7270.053 6.083e-17 6.286e-18
7271.592 6.362e-17 6.566e-18
7273.133 6.618e-17 7.59e-18
7274.672 5.749e-17 9.386e-18
7276.212 6.171e-17 1.028e-17
7277.752 5.806e-17 1.046e-17
7279.292 5.433e-17 9.587e-18
7280.832 4.486e-17 8.256e-18
7282.371 6.782e-17 7.767e-18
7283.912 6.068e-17 7.788e-18
7285.451 5.564e-17 8.012e-18
7286.991 4.13e-17 7.803e-18
7288.532 4.482e-17 7.431e-18
7290.071 6.429e-17 6.794e-18
7291.611 5.401e-17 6.302e-18
7293.151 6.205e-17 6.354e-18
7294.691 6.373e-17 6.488e-18
7296.232 5.609e-17 6.64e-18
7297.771 7.812e-17 6.639e-18
7299.311 6.781e-17 6.584e-18
7300.851 6.138e-17 6.598e-18
7302.391 6.143e-17 7.016e-18
7303.931 5.176e-17 6.98e-18
7305.471 6.508e-17 7.154e-18
7307.012 4.93e-17 6.947e-18
7308.551 6.359e-17 6.677e-18
7310.092 6.176e-17 6.399e-18
7311.631 4.029e-17 6.104e-18
7313.172 6.654e-17 6.984e-18
7314.713 7.267e-17 8.553e-18
7316.252 5.861e-17 9.344e-18
7317.793 7.372e-17 9.607e-18
7319.332 7.258e-17 8.916e-18
7320.873 5.353e-17 7.441e-18
7322.413 5.284e-17 6.422e-18
7323.953 6.184e-17 6.035e-18
7325.494 6.012e-17 6.079e-18
7327.034 7.271e-17 6.705e-18
7328.574 5.068e-17 7.085e-18
7330.114 6.112e-17 7.326e-18
7331.655 6.766e-17 7.27e-18
7333.195 7.358e-17 6.919e-18
7334.735 5.752e-17 6.217e-18
7336.276 5.725e-17 5.989e-18
7337.816 6.359e-17 6.813e-18
7339.356 5.629e-17 8.526e-18
7340.897 5.292e-17 9.209e-18
7342.437 6.251e-17 9.542e-18
7343.978 6.718e-17 9.132e-18
7345.518 5.398e-17 7.497e-18
7347.058 6.253e-17 6.443e-18
7348.598 4.784e-17 5.916e-18
7350.139 6.848e-17 5.891e-18
7351.68 5.416e-17 5.679e-18
7353.22 5.399e-17 5.726e-18
7354.761 5.934e-17 5.856e-18
7356.301 5.804e-17 6.261e-18
7357.841 7.245e-17 6.888e-18
7359.382 5.501e-17 6.896e-18
7360.922 4.992e-17 6.888e-18
7362.463 6.912e-17 6.646e-18
7364.003 5.605e-17 6.069e-18
7365.544 5.489e-17 5.972e-18
7367.084 5.947e-17 6.972e-18
7368.625 6.497e-17 7.936e-18
7370.166 4.903e-17 8.038e-18
7371.706 7.704e-17 8.3e-18
7373.247 6.729e-17 7.457e-18
7374.787 6.544e-17 6.366e-18
7376.328 6.422e-17 5.9e-18
7377.869 5.381e-17 5.615e-18
7379.41 7.746e-17 5.732e-18
7380.951 6.846e-17 5.651e-18
7382.491 6.913e-17 5.65e-18
7384.032 6.715e-17 5.476e-18
7385.572 5.75e-17 5.466e-18
7387.113 6.544e-17 5.515e-18
7388.654 6.578e-17 5.664e-18
7390.194 6.222e-17 6.024e-18
7391.736 5.38e-17 6.334e-18
7393.276 7.232e-17 6.578e-18
7394.817 7.461e-17 6.317e-18
7396.358 5.998e-17 6.011e-18
7397.898 5.753e-17 5.846e-18
7399.44 5.871e-17 6.201e-18
7400.98 6.632e-17 7.08e-18
7402.521 5.096e-17 7.201e-18
7404.061 7.886e-17 7.361e-18
7405.603 6.22e-17 6.742e-18
7407.144 6.341e-17 6.011e-18
7408.684 5.973e-17 5.582e-18
7410.226 6.038e-17 5.472e-18
7411.766 6.302e-17 5.445e-18
7413.307 7.033e-17 5.563e-18
7414.849 5.29e-17 5.388e-18
7416.389 6.451e-17 5.477e-18
7417.93 6.384e-17 5.453e-18
7419.471 6.767e-17 5.469e-18
7421.012 5.425e-17 5.334e-18
7422.553 7.202e-17 5.48e-18
7424.094 6.126e-17 5.408e-18
7425.636 5.907e-17 5.375e-18
7427.176 6.747e-17 5.574e-18
7428.717 6.993e-17 5.801e-18
7430.258 6.244e-17 5.875e-18
7431.799 5.318e-17 5.774e-18
7433.341 6.799e-17 5.747e-18
7434.881 6.525e-17 5.711e-18
7436.423 5.458e-17 5.849e-18
7437.963 5.311e-17 6.139e-18
7439.505 5.231e-17 6.275e-18
7441.047 5.445e-17 6.199e-18
7442.587 6.375e-17 5.931e-18
7444.129 5.959e-17 5.58e-18
7445.669 5.735e-17 5.404e-18
7447.211 6.116e-17 5.314e-18
7448.751 6.089e-17 5.338e-18
7450.293 5.734e-17 5.35e-18
7451.835 6.358e-17 5.395e-18
7453.375 5.736e-17 5.344e-18
7454.917 6.047e-17 5.414e-18
7456.458 6.012e-17 5.391e-18
7457.999 5.319e-17 5.366e-18
7459.541 6.897e-17 5.51e-18
7461.082 6.81e-17 5.733e-18
7462.624 6.421e-17 5.711e-18
7464.164 6.733e-17 5.934e-18
7465.706 6.679e-17 6.017e-18
7467.247 6.601e-17 6.147e-18
7468.788 5.639e-17 6.125e-18
7470.33 5.343e-17 6.255e-18
7471.871 5.79e-17 6.46e-18
7473.413 6.686e-17 6.711e-18
7474.954 6.224e-17 6.602e-18
7476.495 6.077e-17 6.572e-18
7478.037 6.394e-17 6.519e-18
7479.578 5.29e-17 6.356e-18
7481.12 6.778e-17 6.712e-18
7482.661 5.312e-17 6.737e-18
7484.203 5.505e-17 6.743e-18
7485.744 6.213e-17 6.604e-18
7487.286 5.647e-17 6.214e-18
7488.827 4.913e-17 5.771e-18
7490.368 4.891e-17 5.665e-18
7491.91 5.732e-17 5.695e-18
7493.451 6.344e-17 5.882e-18
7494.993 6.253e-17 5.935e-18
7496.535 6.553e-17 5.866e-18
7498.076 5.758e-17 5.704e-18
7499.618 5.618e-17 5.657e-18
7501.159 5.998e-17 5.615e-18
7502.701 5.807e-17 5.579e-18
7504.242 6.709e-17 5.679e-18
7505.784 6.15e-17 5.669e-18
7507.326 6.715e-17 5.682e-18
7508.867 5.466e-17 5.637e-18
7510.409 6.389e-17 5.653e-18
7511.95 6.26e-17 5.66e-18
7513.492 6.448e-17 5.651e-18
7515.035 6.867e-17 5.761e-18
7516.576 5.947e-17 5.827e-18
7518.118 5.894e-17 5.782e-18
7519.659 6.356e-17 6.127e-18
7521.201 5.585e-17 6.774e-18
7522.742 6.32e-17 7.87e-18
7524.284 5.958e-17 8.418e-18
7525.827 5.657e-17 8.545e-18
7527.368 5.941e-17 8e-18
7528.91 5.446e-17 7.236e-18
7530.451 6.825e-17 6.989e-18
7531.993 5.12e-17 6.637e-18
7533.536 6.292e-17 6.612e-18
7535.077 5.964e-17 6.27e-18
7536.619 5.006e-17 5.954e-18
7538.16 5.902e-17 5.97e-18
7539.703 6.427e-17 6.063e-18
7541.244 6.481e-17 6.089e-18
7542.786 5.614e-17 5.957e-18
7544.328 6.795e-17 6.063e-18
7545.87 5.917e-17 5.906e-18
7547.412 5.616e-17 5.794e-18
7548.953 4.728e-17 5.731e-18
7550.496 6.188e-17 5.916e-18
7552.038 5.293e-17 5.842e-18
7553.58 5.817e-17 5.939e-18
7555.122 6.447e-17 6.165e-18
7556.663 6.077e-17 6.366e-18
7558.206 7.668e-17 6.698e-18
7559.747 5.889e-17 6.481e-18
7561.29 6.911e-17 6.485e-18
7562.832 6.503e-17 6.153e-18
7564.373 5.996e-17 6.1e-18
7565.916 7.166e-17 6.278e-18
7567.457 6.53e-17 6.375e-18
7569.0 4.928e-17 6.767e-18
7570.542 5.372e-17 7.577e-18
7572.084 7.653e-17 8.377e-18
7573.626 5.598e-17 8.206e-18
7575.168 7.1e-17 7.945e-18
7576.71 6.034e-17 7.033e-18
7578.252 6.367e-17 6.406e-18
7579.794 6.572e-17 6.248e-18
7581.337 5.136e-17 6.019e-18
7582.879 4.837e-17 6.051e-18
7584.421 6.325e-17 6.587e-18
7585.963 5.157e-17 6.718e-18
7587.505 5.405e-17 6.778e-18
7589.048 7.249e-17 7.174e-18
7590.59 6.692e-17 7.43e-18
7592.132 7.915e-17 8.553e-18
7593.674 7.547e-17 9.743e-18
7595.217 7.321e-17 1.214e-17
7596.758 9.874e-17 1.603e-17
7598.301 3.538e-17 1.89e-17
7599.844 7.363e-17 2.401e-17
7601.385 5.877e-17 2.547e-17
7602.928 2.024e-17 2.511e-17
7604.47 6.326e-17 2.484e-17
7606.012 3.675e-17 2.284e-17
7607.555 6.612e-17 2.026e-17
7609.097 5.869e-17 1.73e-17
7610.64 4.39e-17 1.456e-17
7612.181 6.199e-17 1.216e-17
7613.724 4.251e-17 9.659e-18
7615.267 4.174e-17 8.373e-18
7616.809 4.382e-17 8.365e-18
7618.352 5.434e-17 8.632e-18
7619.893 6.252e-17 9.433e-18
7621.436 7.082e-17 1.044e-17
7622.978 6.911e-17 1.1e-17
7624.521 9.637e-17 1.184e-17
7626.064 4.831e-17 1.186e-17
7627.606 6.476e-17 1.302e-17
7629.149 7.845e-17 1.314e-17
7630.69 5.897e-17 1.302e-17
7632.233 4.508e-17 1.218e-17
7633.776 4.523e-17 1.11e-17
7635.318 5.642e-17 1.056e-17
7636.861 6.028e-17 1.038e-17
7638.403 4.417e-17 9.6e-18
7639.946 6.582e-17 9.731e-18
7641.488 5.753e-17 9.332e-18
7643.031 5.126e-17 8.664e-18
7644.574 5.772e-17 8.775e-18
7646.116 5.726e-17 8.579e-18
7647.659 5.768e-17 8.139e-18
7649.201 6.597e-17 8.012e-18
7650.744 6.311e-17 8.016e-18
7652.287 5.474e-17 7.995e-18
7653.829 5.152e-17 7.669e-18
7655.372 5.512e-17 7.575e-18
7656.914 5.415e-17 7.428e-18
7658.457 5.456e-17 7.133e-18
7659.999 8.406e-17 7.486e-18
7661.542 6.288e-17 7.638e-18
7663.086 5.895e-17 7.74e-18
7664.628 6.854e-17 7.458e-18
7666.171 5.764e-17 7.189e-18
7667.713 5.498e-17 6.914e-18
7669.256 7.3e-17 6.68e-18
7670.799 5.342e-17 6.199e-18
7672.341 5.411e-17 6.333e-18
7673.885 6.144e-17 6.443e-18
7675.427 5.156e-17 6.249e-18
7676.97 4.465e-17 6.01e-18
7678.512 7.178e-17 6.323e-18
7680.055 6.316e-17 6.234e-18
7681.599 6.033e-17 6.145e-18
7683.141 6.701e-17 6.365e-18
7684.684 5.965e-17 6.218e-18
7686.226 5.503e-17 6.175e-18
7687.77 5.706e-17 6.258e-18
7689.313 5.417e-17 6.191e-18
7690.855 5.373e-17 6.247e-18
7692.398 6.157e-17 6.225e-18
7693.941 7.078e-17 6.435e-18
7695.484 6.41e-17 6.321e-18
7697.026 6.511e-17 6.397e-18
7698.57 6.31e-17 6.425e-18
7700.113 5.667e-17 6.413e-18
7701.655 5.654e-17 6.452e-18
7703.199 5.007e-17 6.272e-18
7704.741 5.565e-17 6.008e-18
7706.284 5.674e-17 5.907e-18
7707.828 6.747e-17 6.137e-18
7709.37 6.297e-17 6.749e-18
7710.914 7.608e-17 8.216e-18
7712.456 6.146e-17 9.328e-18
7713.999 7.841e-17 1.039e-17
7715.542 5.006e-17 1.107e-17
7717.085 7.218e-17 1.104e-17
7718.629 3.938e-17 1.023e-17
7720.171 5.8e-17 9.142e-18
7721.715 5.434e-17 8.022e-18
7723.257 8.655e-17 7.467e-18
7724.801 6.175e-17 7.164e-18
7726.344 6.374e-17 7.125e-18
7727.887 6.127e-17 7.051e-18
7729.43 6.571e-17 6.917e-18
7730.973 5.721e-17 6.263e-18
7732.516 5.877e-17 6.12e-18
7734.059 5.119e-17 6.015e-18
7735.602 6.67e-17 6.099e-18
7737.146 6.058e-17 6.231e-18
7738.689 5.724e-17 6.012e-18
7740.232 5.655e-17 5.978e-18
7741.775 6.912e-17 5.99e-18
7743.318 6.594e-17 5.944e-18
7744.862 6.82e-17 6.046e-18
7746.405 4.685e-17 6.349e-18
7747.948 6.449e-17 7.82e-18
7749.491 5.956e-17 9.664e-18
7751.035 8.501e-17 1.065e-17
7752.577 5.439e-17 1.056e-17
7754.121 6.002e-17 9.608e-18
7755.665 3.983e-17 7.778e-18
7757.207 7.661e-17 7.2e-18
7758.751 6.413e-17 7.414e-18
7760.294 6.979e-17 7.766e-18
7761.837 7.765e-17 7.783e-18
7763.381 7.1e-17 7.316e-18
7764.924 6.35e-17 6.552e-18
7766.468 6.273e-17 5.954e-18
7768.01 6.893e-17 5.748e-18
7769.554 7.647e-17 5.863e-18
7771.097 6.108e-17 6.023e-18
7772.641 6.492e-17 6.377e-18
7774.184 4.143e-17 6.355e-18
7775.727 5.71e-17 6.453e-18
7777.271 6.477e-17 6.472e-18
7778.814 6.766e-17 6.771e-18
7780.358 6.76e-17 6.91e-18
7781.902 6.346e-17 7.054e-18
7783.444 5.069e-17 6.815e-18
7784.988 6.202e-17 6.413e-18
7786.531 6.567e-17 6.132e-18
7788.075 6.739e-17 6.011e-18
7789.618 5.847e-17 6.075e-18
7791.162 6.577e-17 7.185e-18
7792.706 8.098e-17 8.83e-18
7794.249 5.929e-17 9.628e-18
7795.792 5.397e-17 9.779e-18
7797.335 6.979e-17 9.135e-18
7798.879 6.378e-17 7.701e-18
7800.423 4.499e-17 6.405e-18
7801.966 6.031e-17 6.001e-18
7803.51 6.819e-17 5.897e-18
7805.053 6.283e-17 6.072e-18
7806.597 6.743e-17 6.856e-18
7808.14 6.793e-17 7.439e-18
7809.684 6.472e-17 7.682e-18
7811.228 5.124e-17 7.514e-18
7812.771 7.814e-17 7.089e-18
7814.315 6.205e-17 6.513e-18
7815.858 6.829e-17 6.237e-18
7817.402 5.662e-17 6.426e-18
7818.946 6.307e-17 7.936e-18
7820.489 4.079e-17 9.494e-18
7822.033 7.37e-17 1.048e-17
7823.576 5.886e-17 1.042e-17
7825.121 6.62e-17 9.398e-18
7826.664 6.365e-17 7.832e-18
7828.208 6.045e-17 6.64e-18
7829.752 6.664e-17 6.198e-18
7831.295 5.987e-17 6.031e-18
7832.839 6.835e-17 6.057e-18
7834.382 6.35e-17 5.995e-18
7835.926 5.641e-17 5.96e-18
7837.471 6.743e-17 6.064e-18
7839.014 6.004e-17 6.624e-18
7840.558 6.061e-17 7.249e-18
7842.101 7.002e-17 7.625e-18
7843.645 5.814e-17 7.42e-18
7845.188 5.561e-17 7.035e-18
7846.733 7.367e-17 6.614e-18
7848.277 5.787e-17 6.639e-18
7849.82 5.553e-17 7.338e-18
7851.364 6.284e-17 9.107e-18
7852.908 5.13e-17 1.04e-17
7854.452 6.153e-17 1.102e-17
7855.996 8.46e-17 1.088e-17
7857.539 6.616e-17 9.542e-18
7859.084 6.524e-17 9.07e-18
7860.627 5.549e-17 8.799e-18
7862.171 7.863e-17 8.699e-18
7863.715 6.131e-17 8.061e-18
7865.259 5.464e-17 7.563e-18
7866.803 7.544e-17 7.485e-18
7868.346 8.11e-17 8.327e-18
7869.891 6.277e-17 8.919e-18
7871.434 7.583e-17 9.289e-18
7872.979 3.713e-17 8.998e-18
7874.523 5.668e-17 8.138e-18
7876.066 6.633e-17 7.453e-18
7877.611 6.021e-17 7.435e-18
7879.154 6.963e-17 7.666e-18
7880.698 7.286e-17 8.178e-18
7882.242 7.562e-17 8.39e-18
7883.786 5.326e-17 7.68e-18
7885.331 7.003e-17 7.417e-18
7886.874 6.736e-17 7.526e-18
7888.418 6.044e-17 8.238e-18
7889.962 6.35e-17 8.829e-18
7891.506 6.858e-17 9.057e-18
7893.051 5.636e-17 8.678e-18
7894.594 5.56e-17 7.696e-18
7896.139 5.245e-17 6.845e-18
7897.682 5.653e-17 6.543e-18
7899.227 5.41e-17 6.274e-18
7900.77 5.197e-17 6.366e-18
7902.315 6.715e-17 6.375e-18
7903.859 5.687e-17 6.261e-18
7905.403 5.778e-17 6.45e-18
7906.947 6.247e-17 6.576e-18
7908.491 5.891e-17 6.526e-18
7910.035 6.392e-17 7.563e-18
7911.58 7.885e-17 1.033e-17
7913.124 8.7e-17 1.212e-17
7914.668 7.811e-17 1.285e-17
7916.212 8.447e-17 1.275e-17
7917.756 6.647e-17 1.136e-17
7919.3 7.32e-17 1.005e-17
7920.845 6.012e-17 9.655e-18
7922.389 7.905e-17 9.72e-18
7923.933 5.906e-17 9.031e-18
7925.477 5.001e-17 8.092e-18
7927.021 7.634e-17 7.305e-18
7928.566 6.579e-17 7.121e-18
7930.11 5.768e-17 7.777e-18
7931.654 6.353e-17 8.304e-18
7933.199 5.292e-17 8.338e-18
7934.742 6.131e-17 8.072e-18
7936.287 5.284e-17 7.256e-18
7937.831 5.122e-17 6.476e-18
7939.375 5.488e-17 6.41e-18
7940.92 6.611e-17 6.35e-18
7942.464 5.484e-17 6.262e-18
7944.009 5.237e-17 6.427e-18
7945.552 5.877e-17 6.667e-18
7947.097 4.807e-17 7.268e-18
7948.642 6.895e-17 7.768e-18
7950.186 7.04e-17 8.08e-18
7951.73 6.173e-17 7.867e-18
7953.274 5.893e-17 7.396e-18
7954.819 5.219e-17 6.719e-18
7956.363 6.672e-17 6.468e-18
7957.907 6.423e-17 6.238e-18
7959.452 6.522e-17 6.501e-18
7960.996 5.122e-17 6.999e-18
7962.541 3.169e-17 8.788e-18
7964.085 7.05e-17 1.08e-17
7965.63 4.76e-17 1.126e-17
7967.173 7.287e-17 1.113e-17
7968.718 5.601e-17 9.921e-18
7970.263 3.728e-17 7.867e-18
7971.807 5.217e-17 7.009e-18
7973.352 5.592e-17 6.59e-18
7974.896 6.2e-17 6.662e-18
7976.441 6.78e-17 7.189e-18
7977.986 5.403e-17 7.982e-18
7979.529 6.843e-17 8.921e-18
7981.074 6.039e-17 8.672e-18
7982.618 4.511e-17 8.085e-18
7984.163 5.285e-17 7.427e-18
7985.707 5.87e-17 6.78e-18
7987.252 6.872e-17 6.403e-18
7988.797 5.35e-17 6.458e-18
7990.341 6.722e-17 7.764e-18
7991.886 5.589e-17 9.996e-18
7993.43 5.183e-17 1.137e-17
7994.975 7.951e-17 1.188e-17
7996.52 5.506e-17 1.085e-17
7998.064 7.364e-17 9.177e-18
7999.609 6.029e-17 7.414e-18
8001.153 5.844e-17 6.532e-18
8002.698 5.441e-17 6.346e-18
8004.242 6.566e-17 6.4e-18
8005.787 5.791e-17 6.168e-18
8007.332 5.029e-17 6.081e-18
8008.876 5.835e-17 6.17e-18
8010.421 5.936e-17 6.328e-18
8011.965 6.232e-17 6.857e-18
8013.51 6.525e-17 7.65e-18
8015.055 4.881e-17 7.715e-18
8016.599 7.799e-17 7.764e-18
8018.144 5.353e-17 7.375e-18
8019.689 5.529e-17 6.737e-18
8021.234 5.132e-17 6.428e-18
8022.778 5.154e-17 7.243e-18
8024.323 5.949e-17 8.906e-18
8025.868 5.953e-17 9.7e-18
8027.412 5.458e-17 1.012e-17
8028.957 5.292e-17 9.728e-18
8030.501 7.015e-17 8.414e-18
8032.047 5.65e-17 7.23e-18
8033.592 5.285e-17 6.463e-18
8035.136 5.507e-17 6.119e-18
8036.681 5.252e-17 5.866e-18
8038.225 4.958e-17 5.992e-18
8039.771 4.942e-17 5.835e-18
8041.315 5.369e-17 6.016e-18
8042.86 6.421e-17 5.978e-18
8044.405 6.426e-17 5.993e-18
8045.949 5.528e-17 5.858e-18
8047.495 5.845e-17 5.984e-18
8049.039 5.806e-17 6.132e-18
8050.584 5.225e-17 6.634e-18
8052.129 6.543e-17 7.031e-18
8053.674 5.848e-17 6.957e-18
8055.219 4.636e-17 6.518e-18
8056.763 6.691e-17 6.267e-18
8058.308 6.195e-17 6.236e-18
8059.853 5.78e-17 6.747e-18
8061.398 6.453e-17 7.539e-18
8062.943 6.934e-17 8.052e-18
8064.488 5.854e-17 7.756e-18
8066.033 5.223e-17 7.289e-18
8067.577 5.564e-17 6.545e-18
8069.123 6.767e-17 6.002e-18
8070.668 4.939e-17 5.756e-18
8072.212 6.017e-17 5.77e-18
8073.758 6.46e-17 5.775e-18
8075.302 6.235e-17 5.71e-18
8076.847 6.767e-17 5.874e-18
8078.392 5.894e-17 5.791e-18
8079.937 6.037e-17 5.832e-18
8081.482 6.041e-17 5.896e-18
8083.027 5.87e-17 5.826e-18
8084.572 5.414e-17 5.833e-18
8086.117 5.201e-17 5.85e-18
8087.662 5.137e-17 5.912e-18
8089.207 5.801e-17 5.601e-18
8090.752 5.789e-17 5.872e-18
8092.297 5.131e-17 5.962e-18
8093.842 4.755e-17 5.817e-18
8095.387 5.268e-17 6.053e-18
8096.932 7.812e-17 6.106e-18
8098.477 5.588e-17 5.808e-18
8100.023 4.893e-17 5.795e-18
8101.567 6.721e-17 6.232e-18
8103.113 6.819e-17 6.417e-18
8104.657 3.874e-17 6.272e-18
8106.202 6.037e-17 6.299e-18
8107.748 6.88e-17 6.073e-18
8109.292 4.363e-17 5.498e-18
8110.838 5.114e-17 5.569e-18
8112.383 5.012e-17 5.492e-18
8113.928 4.716e-17 5.483e-18
8115.473 5.094e-17 5.435e-18
8117.018 5.756e-17 5.489e-18
8118.564 6.207e-17 5.513e-18
8120.108 5.021e-17 5.434e-18
8121.654 5.536e-17 5.461e-18
8123.198 5.551e-17 5.53e-18
8124.744 5.334e-17 5.49e-18
8126.289 5.687e-17 5.519e-18
8127.834 4.866e-17 5.515e-18
8129.38 5.468e-17 5.598e-18
8130.924 6.211e-17 5.838e-18
8132.47 4.958e-17 5.689e-18
8134.014 5.213e-17 5.61e-18
8135.56 5.26e-17 5.705e-18
8137.106 5.382e-17 5.783e-18
8138.65 6.375e-17 6.063e-18
8140.196 4.424e-17 5.828e-18
8141.741 5.454e-17 5.874e-18
8143.286 4.704e-17 5.741e-18
8144.831 6.073e-17 5.972e-18
8146.377 4.789e-17 5.936e-18
8147.922 4.775e-17 5.929e-18
8149.467 5.67e-17 6.07e-18
8151.013 5.717e-17 5.995e-18
8152.557 4.415e-17 5.677e-18
8154.103 5.246e-17 5.711e-18
8155.649 4.327e-17 5.598e-18
8157.193 3.846e-17 5.357e-18
8158.739 5.168e-17 5.519e-18
8160.284 4.979e-17 5.797e-18
8161.83 4.475e-17 5.738e-18
8163.374 6.235e-17 6.496e-18
8164.92 4.694e-17 5.766e-18
8166.466 4.246e-17 5.591e-18
8168.01 5.046e-17 5.57e-18
8169.556 5.043e-17 5.551e-18
8171.101 3.949e-17 5.446e-18
8172.647 6.144e-17 6.144e-18
8174.193 5.508e-17 5.73e-18
8175.737 5.234e-17 5.874e-18
8177.283 3.788e-17 5.765e-18
8178.828 4.938e-17 5.858e-18
8180.374 4.256e-17 5.793e-18
8181.919 4.217e-17 5.928e-18
8183.464 4.88e-17 6.102e-18
8185.01 5.328e-17 6.063e-18
8186.555 5.293e-17 6.197e-18
8188.101 4.978e-17 6.221e-18
8189.646 4.624e-17 6.072e-18
8191.191 4.785e-17 6.13e-18
8192.737 4.973e-17 6.27e-18
8194.282 5.189e-17 6.455e-18
8195.828 4.973e-17 6.503e-18
8197.373 5.354e-17 6.475e-18
8198.919 6.037e-17 6.357e-18
8200.464 5.09e-17 5.866e-18
8202.01 4.541e-17 5.662e-18
8203.555 5.595e-17 5.701e-18
8205.1 5.458e-17 5.798e-18
8206.646 4.574e-17 5.682e-18
8208.191 5.593e-17 5.676e-18
8209.737 5.395e-17 5.666e-18
8211.283 6.569e-17 5.927e-18
8212.828 4.814e-17 5.697e-18
8214.374 5.064e-17 5.753e-18
8215.919 5.492e-17 5.697e-18
8217.465 3.887e-17 5.664e-18
8219.01 5.5e-17 5.842e-18
8220.556 5.794e-17 5.955e-18
8222.102 5.261e-17 5.981e-18
8223.647 4.806e-17 6.135e-18
8225.193 3.701e-17 6.345e-18
8226.737 4.742e-17 6.67e-18
8228.283 4.21e-17 6.735e-18
8229.829 3.652e-17 6.287e-18
8231.374 4.533e-17 6.246e-18
8232.92 4.604e-17 5.987e-18
8234.465 5.233e-17 5.888e-18
8236.011 4.364e-17 5.633e-18
8237.557 4.95e-17 5.72e-18
8239.103 3.362e-17 5.693e-18
8240.649 5.016e-17 5.814e-18
8242.194 5.75e-17 5.993e-18
8243.74 5.45e-17 5.901e-18
8245.285 5.149e-17 5.844e-18
8246.831 4.479e-17 5.747e-18
8248.377 5.518e-17 5.798e-18
8249.922 4.233e-17 5.771e-18
8251.468 6.676e-17 6.011e-18
8253.013 5.506e-17 6.077e-18
8254.559 5.194e-17 5.969e-18
8256.104 6.323e-17 6.097e-18
8257.65 3.914e-17 5.941e-18
8259.196 5.636e-17 5.878e-18
8260.741 4.481e-17 5.751e-18
8262.288 4.773e-17 5.793e-18
8263.833 5.838e-17 5.772e-18
8265.379 5.412e-17 5.727e-18
8266.925 5.601e-17 5.708e-18
8268.47 5.989e-17 5.909e-18
8270.016 4.191e-17 5.745e-18
8271.561 5.448e-17 6.113e-18
8273.107 5.214e-17 6.14e-18
8274.653 5.606e-17 6.27e-18
8276.199 5.113e-17 6.649e-18
8277.745 4.694e-17 7.482e-18
8279.29 7.61e-17 8.805e-18
8280.836 6.129e-17 9.535e-18
8282.381 5.273e-17 9.869e-18
8283.928 5.376e-17 9.337e-18
8285.473 6.529e-17 9.434e-18
8287.019 7.05e-17 1.059e-17
8288.565 3.806e-17 1.082e-17
8290.11 4.814e-17 1.09e-17
8291.657 5.401e-17 1.023e-17
8293.202 5.683e-17 8.714e-18
8294.748 3.87e-17 7.909e-18
8296.294 6.312e-17 9.149e-18
8297.84 5.587e-17 1.108e-17
8299.386 6.895e-17 1.165e-17
8300.931 2.817e-17 1.133e-17
8302.477 5.699e-17 1.032e-17
8304.023 6.567e-17 8.182e-18
8305.569 4.447e-17 6.874e-18
8307.115 3.952e-17 6.421e-18
8308.66 5.372e-17 6.951e-18
8310.207 4.962e-17 7.5e-18
8311.752 3.102e-17 7.669e-18
8313.298 6.032e-17 7.673e-18
8314.845 5.709e-17 7.449e-18
8316.39 4.122e-17 6.637e-18
8317.936 5.986e-17 6.512e-18
8319.481 5.104e-17 6.232e-18
8321.028 5.49e-17 6.213e-18
8322.573 4.054e-17 6.062e-18
8324.119 5.869e-17 5.968e-18
8325.666 5.306e-17 6.009e-18
8327.211 4.391e-17 5.903e-18
8328.757 6.046e-17 5.974e-18
8330.303 5.114e-17 5.984e-18
8331.849 5.188e-17 5.88e-18
8333.395 5.827e-17 5.895e-18
8334.941 4.93e-17 6.114e-18
8336.487 4.96e-17 6.034e-18
8338.032 6.02e-17 6.23e-18
8339.579 5.07e-17 6.477e-18
8341.124 4.977e-17 8.218e-18
8342.671 3.773e-17 1.206e-17
8344.217 5.818e-17 1.496e-17
8345.762 6.471e-17 1.595e-17
8347.309 7.619e-17 1.534e-17
8348.854 3.971e-17 1.242e-17
8350.401 5.022e-17 1.005e-17
8351.947 5.795e-17 1.005e-17
8353.492 7.174e-17 1.037e-17
8355.039 3.922e-17 9.971e-18
8356.584 4.901e-17 8.95e-18
8358.131 3.849e-17 7.476e-18
8359.676 4.862e-17 6.495e-18
8361.223 5.592e-17 6.402e-18
8362.769 5.838e-17 7.137e-18
8364.314 5.822e-17 7.678e-18
8365.861 4.332e-17 7.533e-18
8367.406 5.676e-17 7.473e-18
8368.953 5.383e-17 6.944e-18
8370.499 4.533e-17 6.095e-18
8372.045 6.117e-17 6.003e-18
8373.591 5.621e-17 5.92e-18
8375.137 5.37e-17 5.865e-18
8376.683 5.422e-17 5.867e-18
8378.229 4.943e-17 6.182e-18
8379.775 5.52e-17 7.11e-18
8381.322 6.906e-17 8.363e-18
8382.867 5.818e-17 9.045e-18
8384.414 6.394e-17 8.977e-18
8385.959 3.321e-17 7.996e-18
8387.506 4.154e-17 6.673e-18
8389.051 4.111e-17 6.178e-18
8390.598 5.912e-17 6.066e-18
8392.144 5.499e-17 5.945e-18
8393.69 5.218e-17 5.983e-18
8395.236 3.945e-17 6.463e-18
8396.782 7.118e-17 9.287e-18
8398.329 6.625e-17 1.232e-17
8399.875 4.312e-17 1.312e-17
8401.421 4.402e-17 1.323e-17
8402.967 5.935e-17 1.171e-17
8404.513 4.042e-17 8.334e-18
8406.059 4.133e-17 6.258e-18
8407.605 5.054e-17 5.902e-18
8409.152 4.747e-17 5.749e-18
8410.698 5.472e-17 5.939e-18
8412.244 5.918e-17 6.662e-18
8413.79 5.156e-17 8.175e-18
8415.336 5.868e-17 9.205e-18
8416.883 6.009e-17 9.239e-18
8418.429 6.202e-17 8.848e-18
8419.975 5.474e-17 7.367e-18
8421.521 6.522e-17 6.424e-18
8423.067 5.967e-17 6.099e-18
8424.614 6.23e-17 6.139e-18
8426.159 4.753e-17 6.72e-18
8427.706 4.614e-17 9.534e-18
8429.253 8.265e-17 1.302e-17
8430.798 3.506e-17 1.399e-17
8432.345 7.085e-17 1.403e-17
8433.891 4.793e-17 1.231e-17
8435.437 4.66e-17 8.84e-18
8436.984 5.795e-17 6.726e-18
8438.53 5.106e-17 5.969e-18
8440.076 5.023e-17 5.798e-18
8441.622 4.83e-17 5.663e-18
8443.169 6.083e-17 5.778e-18
8444.714 5.454e-17 5.7e-18
8446.261 3.875e-17 5.603e-18
8447.808 5.78e-17 5.802e-18
8449.353 6.21e-17 6.496e-18
8450.9 6.128e-17 7.898e-18
8452.446 5.633e-17 8.585e-18
8453.992 7.361e-17 8.732e-18
8455.539 5.712e-17 8.285e-18
8457.085 4.659e-17 6.879e-18
8458.632 5e-17 6.075e-18
8460.177 4.459e-17 5.748e-18
8461.724 6.273e-17 6.491e-18
8463.27 6.094e-17 9.126e-18
8464.817 4.198e-17 1.132e-17
8466.363 4.183e-17 1.188e-17
8467.909 6.901e-17 1.164e-17
8469.456 4.5e-17 9.677e-18
8471.002 2.982e-17 6.995e-18
8472.548 4.882e-17 6.019e-18
8474.094 4.757e-17 5.843e-18
8475.641 4.648e-17 5.79e-18
8477.188 5.594e-17 5.851e-18
8478.733 4.651e-17 5.613e-18
8480.28 6.124e-17 5.645e-18
8481.826 5.573e-17 5.555e-18
8483.373 5.474e-17 5.543e-18
8484.919 5.373e-17 5.496e-18
8486.465 4.485e-17 5.443e-18
8488.012 6.256e-17 5.596e-18
8489.558 5.625e-17 5.701e-18
8491.105 5.83e-17 6.347e-18
8492.65 4.383e-17 7.076e-18
8494.197 5.587e-17 7.515e-18
8495.744 7.084e-17 7.642e-18
8497.29 6.025e-17 7.083e-18
8498.837 4.852e-17 6.146e-18
8500.383 5.014e-17 5.883e-18
8501.929 4.093e-17 6.55e-18
8503.476 8.032e-17 8.536e-18
8505.022 5.493e-17 9.216e-18
8506.569 6.191e-17 9.314e-18
8508.115 6.469e-17 8.758e-18
8509.662 5.92e-17 7.181e-18
8511.208 5.125e-17 5.876e-18
8512.754 5.029e-17 5.519e-18
8514.301 6.165e-17 5.475e-18
8515.847 4.98e-17 5.461e-18
8517.394 4.953e-17 5.406e-18
8518.94 4.814e-17 5.439e-18
8520.487 4.548e-17 5.46e-18
8522.034 5.033e-17 5.522e-18
8523.579 4.505e-17 5.505e-18
8525.126 4.918e-17 5.491e-18
8526.672 4.875e-17 5.44e-18
8528.219 3.992e-17 5.298e-18
8529.765 5.993e-17 5.562e-18
8531.312 5.877e-17 5.489e-18
8532.859 4.518e-17 5.419e-18
8534.405 5.235e-17 5.454e-18
8535.952 4.996e-17 5.641e-18
8537.498 5.623e-17 6.204e-18
8539.045 5.067e-17 6.309e-18
8540.591 5.133e-17 6.374e-18
8542.137 5.399e-17 6.219e-18
8543.684 5.309e-17 5.818e-18
8545.23 6.303e-17 5.826e-18
8546.777 5.067e-17 6.448e-18
8548.323 6.061e-17 7.207e-18
8549.87 5.027e-17 7.276e-18
8551.417 5.24e-17 7.198e-18
8552.963 4.361e-17 6.568e-18
8554.51 5.11e-17 5.863e-18
8556.056 6.352e-17 5.711e-18
8557.603 4.577e-17 5.448e-18
8559.149 4.593e-17 5.468e-18
8560.696 4.061e-17 5.395e-18
8562.243 4.722e-17 5.415e-18
8563.789 4.864e-17 5.493e-18
8565.336 4.733e-17 5.436e-18
8566.882 5.104e-17 5.483e-18
8568.429 5.126e-17 5.469e-18
8569.976 5.038e-17 5.509e-18
8571.522 5.064e-17 5.516e-18
8573.069 4.998e-17 5.626e-18
8574.615 5.246e-17 5.636e-18
8576.162 5.215e-17 5.659e-18
8577.708 5.231e-17 5.69e-18
8579.255 5.597e-17 5.712e-18
8580.802 5.614e-17 5.648e-18
8582.348 5.071e-17 5.547e-18
8583.895 5.745e-17 5.628e-18
8585.441 4.549e-17 5.588e-18
8586.988 4.777e-17 5.935e-18
8588.535 5.278e-17 6.085e-18
8590.081 4.973e-17 6.16e-18
8591.628 4.962e-17 6.016e-18
8593.174 5.342e-17 5.907e-18
8594.721 4.803e-17 5.901e-18
8596.267 4.824e-17 6.196e-18
8597.814 5.102e-17 6.375e-18
8599.361 5.472e-17 6.333e-18
8600.907 5.731e-17 6.193e-18
8602.454 4.752e-17 5.797e-18
8604.0 6.401e-17 5.827e-18
8605.547 5.091e-17 5.636e-18
8607.094 5.712e-17 5.79e-18
8608.64 5.161e-17 5.753e-18
8610.187 5.569e-17 5.833e-18
8611.734 5.136e-17 5.886e-18
8613.281 4.707e-17 5.949e-18
8614.827 5.232e-17 6.211e-18
8616.374 5.416e-17 6.444e-18
8617.921 5.206e-17 6.677e-18
8619.467 4.229e-17 6.808e-18
8621.014 6.149e-17 7.232e-18
8622.56 4.78e-17 7.444e-18
8624.107 4.615e-17 7.666e-18
8625.654 6.355e-17 8e-18
8627.2 5.803e-17 8.209e-18
8628.748 6.706e-17 8.469e-18
8630.294 6.247e-17 8.6e-18
8631.841 5.398e-17 8.473e-18
8633.387 5.507e-17 8.348e-18
8634.934 5.092e-17 8.312e-18
8636.481 7.977e-17 8.215e-18
8638.027 6.031e-17 7.802e-18
8639.574 6.58e-17 7.669e-18
8641.12 4.171e-17 7.068e-18
8642.668 4.425e-17 6.899e-18
8644.214 4.687e-17 6.678e-18
8645.761 5.706e-17 6.649e-18
8647.308 5.575e-17 6.821e-18
8648.854 6.671e-17 7.581e-18
8650.401 4.79e-17 7.896e-18
8651.947 6.467e-17 8.237e-18
8653.495 6.761e-17 8.594e-18
8655.042 4.924e-17 8.466e-18
8656.588 4.709e-17 8.326e-18
8658.135 6.98e-17 8.779e-18
8659.681 6.818e-17 8.73e-18
8661.228 5.02e-17 8.24e-18
8662.775 5.662e-17 8.385e-18
8664.322 5.089e-17 8.305e-18
8665.869 2.416e-17 7.763e-18
8667.415 4.969e-17 8.006e-18
8668.962 5.528e-17 8.034e-18
8670.508 4.187e-17 7.612e-18
8672.056 4.896e-17 7.513e-18
8673.603 6.675e-17 7.657e-18
8675.149 4.677e-17 7.245e-18
8676.696 4.658e-17 7.034e-18
8678.242 4.417e-17 6.986e-18
8679.79 6.687e-17 7.07e-18
8681.336 5.576e-17 6.773e-18
8682.883 5.619e-17 6.646e-18
8684.43 6.207e-17 6.639e-18
8685.976 5.539e-17 6.496e-18
8687.524 4.387e-17 6.254e-18
8689.07 5.883e-17 6.359e-18
8690.617 5.018e-17 6.219e-18
8692.164 4.16e-17 6.058e-18
8693.71 6.648e-17 6.297e-18
8695.258 4.997e-17 6.096e-18
8696.804 5.642e-17 6.233e-18
8698.351 6.529e-17 6.31e-18
8699.897 6.152e-17 6.226e-18
8701.444 5.407e-17 6.228e-18
8702.992 4.645e-17 6.206e-18
8704.538 5.98e-17 6.238e-18
8706.085 5.018e-17 6.21e-18
8707.631 4.322e-17 6.112e-18
8709.179 5.479e-17 6.268e-18
8710.725 4.46e-17 6.09e-18
8712.272 5.362e-17 6.046e-18
8713.819 5.66e-17 5.897e-18
8715.366 4.074e-17 5.724e-18
8716.913 5.055e-17 5.882e-18
8718.459 6.01e-17 5.95e-18
8720.006 5.027e-17 5.863e-18
8721.554 5.406e-17 5.897e-18
8723.1 5.513e-17 5.877e-18
8724.647 5.434e-17 5.898e-18
8726.193 5.173e-17 5.908e-18
8727.741 5.051e-17 5.972e-18
8729.287 5.438e-17 5.968e-18
8730.834 4.713e-17 5.827e-18
8732.381 4.562e-17 5.765e-18
8733.928 4.931e-17 5.839e-18
8735.475 4.808e-17 5.829e-18
8737.021 5.233e-17 5.887e-18
8738.569 5.718e-17 5.992e-18
8740.116 4.565e-17 5.932e-18
8741.662 6.162e-17 6.047e-18
8743.209 4.652e-17 5.937e-18
8744.756 3.237e-17 5.751e-18
8746.303 5.117e-17 5.887e-18
8747.849 5.66e-17 5.984e-18
8749.397 4.422e-17 5.897e-18
8750.944 4.405e-17 5.916e-18
8752.49 5.178e-17 6.019e-18
8754.037 4.889e-17 5.936e-18
8755.584 3.842e-17 6.084e-18
8757.131 8.274e-17 7.553e-18
8758.678 4.327e-17 8.97e-18
8760.225 5.966e-17 1.116e-17
8761.772 6.689e-17 1.185e-17
8763.318 3.309e-17 1.149e-17
8764.866 7.373e-17 1.178e-17
8766.412 5.622e-17 1.259e-17
8767.959 5.673e-17 1.304e-17
8769.507 7.455e-17 1.304e-17
8771.053 7.238e-17 1.173e-17
8772.6 2.98e-17 8.712e-18
8774.147 4.193e-17 8.308e-18
8775.694 3.725e-17 1.049e-17
8777.24 8.025e-17 1.338e-17
8778.788 7.614e-17 1.398e-17
8780.335 6.383e-17 1.318e-17
8781.881 5.957e-17 1.115e-17
8783.429 3.282e-17 7.7e-18
8784.975 4.125e-17 6.22e-18
8786.522 4.474e-17 5.971e-18
8788.07 4.523e-17 6.494e-18
8789.616 7.013e-17 8.139e-18
8791.163 6.488e-17 8.871e-18
8792.71 3.979e-17 8.729e-18
8794.257 6.005e-17 8.536e-18
8795.803 3.955e-17 7.018e-18
8797.351 4.553e-17 6.04e-18
8798.898 4.312e-17 5.79e-18
8800.444 4.582e-17 5.791e-18
8801.992 4.424e-17 5.802e-18
8803.538 5.393e-17 5.89e-18
8805.085 5.103e-17 5.77e-18
8806.633 5.618e-17 5.867e-18
8808.179 4.785e-17 5.952e-18
8809.726 5.358e-17 6.091e-18
8811.273 4.207e-17 6.109e-18
8812.82 5.146e-17 6.099e-18
8814.367 5.603e-17 5.969e-18
8815.914 4.906e-17 5.795e-18
8817.461 3.956e-17 5.674e-18
8819.008 5.554e-17 6.179e-18
8820.555 4.468e-17 5.883e-18
8822.101 3.938e-17 6.245e-18
8823.649 4.453e-17 8.917e-18
8825.196 1.04e-16 1.538e-17
8826.743 6.854e-17 1.866e-17
8828.29 1.056e-16 1.91e-17
8829.836 7.962e-17 1.818e-17
8831.384 4.169e-17 1.378e-17
8832.93 1.775e-17 9.199e-18
8834.477 5.925e-17 1.074e-17
8836.025 8.039e-17 1.236e-17
8837.571 4.049e-17 1.221e-17
8839.119 7.225e-17 1.172e-17
8840.665 6.458e-17 9.418e-18
8842.212 3.744e-17 6.717e-18
8843.759 3.821e-17 6.083e-18
8845.306 5.148e-17 6.124e-18
8846.854 5.411e-17 6.648e-18
8848.4 5.874e-17 7.838e-18
8849.947 6.185e-17 8.279e-18
8851.494 5.533e-17 8.243e-18
8853.041 5.96e-17 7.962e-18
8854.589 3.4e-17 6.564e-18
8856.135 4.141e-17 5.827e-18
8857.682 6.174e-17 5.922e-18
8859.229 3.898e-17 5.747e-18
8860.776 4.53e-17 5.995e-18
8862.323 5.412e-17 6.135e-18
8863.87 4.185e-17 6.429e-18
8865.417 4.724e-17 8.382e-18
8866.964 3.273e-17 9.968e-18
8868.511 3.948e-17 1.031e-17
8870.058 2.741e-17 9.904e-18
8871.605 6.107e-17 8.577e-18
8873.152 3.966e-17 6.371e-18
8874.699 5.444e-17 5.915e-18
8876.246 4.218e-17 5.607e-18
8877.793 4.73e-17 5.642e-18
8879.34 4.146e-17 5.614e-18
8880.887 5.712e-17 5.85e-18
8882.434 3.41e-17 7.201e-18
8883.981 1.032e-16 1.293e-17
8885.528 7.322e-17 1.574e-17
8887.075 5.826e-17 1.603e-17
8888.622 5.111e-17 1.545e-17
8890.169 3.553e-17 1.152e-17
8891.717 3.841e-17 7.214e-18
8893.263 4.102e-17 6.041e-18
8894.81 4.892e-17 5.915e-18
8896.357 4.088e-17 5.826e-18
8897.904 5.538e-17 5.951e-18
8899.451 4.415e-17 6.26e-18
8900.998 4.349e-17 8.513e-18
8902.546 8.596e-17 1.059e-17
8904.092 3.308e-17 1.069e-17
8905.639 3.579e-17 1.055e-17
8907.186 5.696e-17 9.01e-18
8908.733 4.47e-17 6.645e-18
8910.28 3.911e-17 6.083e-18
8911.827 4.841e-17 5.979e-18
8913.375 5.081e-17 5.86e-18
8914.921 4.723e-17 5.859e-18
8916.468 2.838e-17 8.008e-18
8918.015 6.497e-17 1.399e-17
8919.562 5.717e-17 1.617e-17
8921.11 3.506e-17 1.641e-17
8922.656 5.491e-17 1.537e-17
8924.204 3.45e-17 1.078e-17
8925.75 3.749e-17 7.069e-18
8927.298 5.316e-17 6.356e-18
8928.844 4.847e-17 6.195e-18
8930.391 6.391e-17 6.277e-18
8931.939 4.594e-17 5.84e-18
8933.485 4.676e-17 5.847e-18
8935.033 5.291e-17 5.837e-18
8936.579 4.426e-17 5.745e-18
8938.127 4.239e-17 5.674e-18
8939.674 4.744e-17 6.108e-18
8941.221 5.385e-17 8.033e-18
8942.768 4.173e-17 9.882e-18
8944.315 6.046e-17 1.053e-17
8945.862 5.493e-17 1.014e-17
8947.408 4.537e-17 8.678e-18
8948.956 2.992e-17 6.423e-18
8950.503 5.293e-17 6.029e-18
8952.05 5.383e-17 5.858e-18
8953.597 4.045e-17 6.087e-18
8955.144 4.304e-17 8.577e-18
8956.691 6.865e-17 1.303e-17
8958.239 7.706e-17 1.468e-17
8959.785 3.572e-17 1.498e-17
8961.333 5.123e-17 1.444e-17
8962.879 2.95e-17 1.01e-17
8964.426 3.081e-17 6.724e-18
8965.973 3.904e-17 5.935e-18
8967.52 4.815e-17 5.986e-18
8969.068 4.939e-17 6.07e-18
8970.614 3.808e-17 6.307e-18
8972.162 4.306e-17 6.36e-18
8973.708 4.685e-17 6.187e-18
8975.256 5.648e-17 6.018e-18
8976.802 3.994e-17 5.952e-18
8978.35 4.177e-17 5.949e-18
8979.897 3.673e-17 6.061e-18
8981.444 4.827e-17 6.135e-18
8982.991 3.545e-17 6.256e-18
8984.537 6.241e-17 6.949e-18
8986.085 4.303e-17 8.461e-18
8987.632 6.569e-17 1.075e-17
8989.179 5.124e-17 1.099e-17
8990.726 1.707e-17 9.911e-18
8992.273 4.69e-17 8.662e-18
8993.82 4.95e-17 6.772e-18
8995.367 4.954e-17 6.043e-18
8996.914 5.665e-17 6.351e-18
8998.462 4.71e-17 8.001e-18
9000.008 3.016e-17 1.151e-17
9001.556 5.277e-17 1.327e-17
9003.102 5.516e-17 1.252e-17
9004.649 6.077e-17 1.152e-17
9006.197 3.473e-17 8.008e-18
9007.743 4.539e-17 6.508e-18
9009.291 4.641e-17 5.995e-18
9010.837 5.029e-17 5.832e-18
9012.385 3.666e-17 5.84e-18
9013.931 5.781e-17 6.243e-18
9015.479 5.648e-17 6.182e-18
9017.026 5.015e-17 6.097e-18
9018.573 4.973e-17 6.065e-18
9020.12 4.668e-17 6.266e-18
9021.667 4.861e-17 6.404e-18
9023.214 5.32e-17 6.319e-18
9024.762 4.567e-17 6.365e-18
9026.308 4.915e-17 6.168e-18
9027.855 5.376e-17 6.082e-18
9029.402 5.585e-17 6.005e-18
9030.949 5.207e-17 5.899e-18
9032.496 4.202e-17 5.797e-18
9034.043 4.396e-17 5.689e-18
9035.591 5.002e-17 6.16e-18
9037.137 6.609e-17 7.373e-18
9038.685 4.333e-17 7.539e-18
9040.231 4.619e-17 7.732e-18
9041.779 7.237e-17 7.387e-18
9043.325 3.776e-17 6.19e-18
9044.873 4.717e-17 5.907e-18
9046.42 5.472e-17 6.556e-18
9047.966 5.128e-17 8.138e-18
9049.514 4.077e-17 8.821e-18
9051.06 5.374e-17 9.421e-18
9052.608 4.884e-17 8.868e-18
9054.155 4.521e-17 7.144e-18
9055.702 4.526e-17 6.262e-18
9057.249 4.732e-17 6.044e-18
9058.796 5.237e-17 6.235e-18
9060.343 4.287e-17 6.224e-18
9061.89 5.783e-17 6.227e-18
9063.437 5.063e-17 6.013e-18
9064.985 5.46e-17 6.148e-18
9066.531 4.475e-17 6.388e-18
9068.078 5.109e-17 6.697e-18
9069.625 5.18e-17 6.902e-18
9071.172 4.967e-17 6.913e-18
9072.72 4.36e-17 6.284e-18
9074.266 3.853e-17 6.199e-18
9075.814 3.726e-17 6.103e-18
9077.36 4.584e-17 6.348e-18
9078.908 5.348e-17 6.58e-18
9080.454 3.326e-17 6.445e-18
9082.002 4.934e-17 6.396e-18
9083.549 2.811e-17 6.163e-18
9085.096 4.361e-17 6.398e-18
9086.643 5.308e-17 6.5e-18
9088.189 5.198e-17 6.301e-18
9089.737 4.458e-17 6.447e-18
9091.284 5.612e-17 7.004e-18
9092.831 3.669e-17 6.873e-18
9094.378 5.514e-17 7.348e-18
9095.925 5.523e-17 7.2e-18
9097.472 4.013e-17 6.863e-18
9099.019 4.324e-17 6.679e-18
9100.566 5.67e-17 7.608e-18
9102.113 4.138e-17 8.02e-18
9103.66 4.633e-17 8.452e-18
9105.207 3.64e-17 8.492e-18
9106.754 3.862e-17 7.474e-18
9108.301 3.451e-17 6.312e-18
9109.848 4.018e-17 6.077e-18
9111.395 3.558e-17 5.727e-18
9112.943 5.503e-17 6.222e-18
9114.489 4.446e-17 6.327e-18
9116.036 4.432e-17 6.711e-18
9117.583 4.341e-17 6.768e-18
9119.13 3.478e-17 6.425e-18
9120.678 4.777e-17 6.233e-18
9122.224 4.06e-17 5.871e-18
9123.772 4.407e-17 5.955e-18
9125.318 4.779e-17 6.451e-18
9126.866 4.912e-17 6.602e-18
9128.412 4.79e-17 6.856e-18
9129.959 5.007e-17 6.8e-18
9131.507 3.877e-17 6.793e-18
9133.053 5.089e-17 7.009e-18
9134.601 4.226e-17 7.154e-18
9136.147 4.483e-17 6.799e-18
9137.695 3.844e-17 6.598e-18
9139.242 4.684e-17 6.292e-18
9140.788 4.244e-17 6.159e-18
9142.336 4.486e-17 6.19e-18
9143.882 4.77e-17 6.274e-18
9145.43 5.101e-17 6.183e-18
9146.976 4.831e-17 6.323e-18
9148.524 5.16e-17 6.925e-18
9150.071 4.091e-17 7.458e-18
9151.617 5.981e-17 8.184e-18
9153.165 4.784e-17 8.28e-18
9154.711 4.699e-17 8.07e-18
9156.259 4.136e-17 7.404e-18
9157.805 3.699e-17 7.214e-18
9159.353 4.815e-17 7.341e-18
9160.9 4.952e-17 7.421e-18
9162.446 5.101e-17 7.525e-18
9163.994 5.836e-17 7.296e-18
9165.54 4.214e-17 6.898e-18
9167.088 3.913e-17 6.39e-18
9168.635 4.289e-17 6.653e-18
9170.181 3.666e-17 6.661e-18
9171.729 4.199e-17 6.832e-18
9173.275 2.883e-17 7.026e-18
9174.823 3.718e-17 7.002e-18
9176.369 4.293e-17 6.666e-18
9177.916 3.73e-17 6.529e-18
9179.464 5.42e-17 6.532e-18
9181.01 4.263e-17 6.416e-18
9182.558 4.532e-17 6.728e-18
9184.104 4.026e-17 6.562e-18
9185.651 4.842e-17 6.323e-18
9187.199 5.026e-17 6.335e-18
9188.745 5.473e-17 6.22e-18
9190.293 5.897e-17 6.478e-18
9191.839 5.058e-17 6.457e-18
9193.386 4.612e-17 6.537e-18
9194.933 5.644e-17 6.547e-18
9196.48 4.678e-17 6.349e-18
9198.028 5.387e-17 6.397e-18
9199.574 5.723e-17 6.174e-18
9201.121 5.081e-17 6.168e-18
9202.668 4.932e-17 6.301e-18
9204.215 4.751e-17 6.274e-18
9205.763 6.217e-17 6.617e-18
9207.309 4.907e-17 6.653e-18
9208.856 5.436e-17 6.41e-18
9210.403 5.912e-17 6.529e-18
9211.95 4.229e-17 6.549e-18
9213.496 5.462e-17 7.008e-18
9215.044 5.14e-17 7.268e-18
9216.591 5.619e-17 7.379e-18
9218.138 4.733e-17 6.953e-18
9219.685 5.713e-17 7.078e-18
9221.231 5.036e-17 6.841e-18
9222.779 5.942e-17 7.101e-18
9224.325 5.648e-17 7.234e-18
9225.872 6.051e-17 7.597e-18
9227.42 4.548e-17 7.355e-18
9228.966 5.688e-17 7.003e-18
9230.513 5.176e-17 6.63e-18
9232.06 6.66e-17 6.805e-18
9233.607 4.977e-17 6.603e-18
9235.155 5.715e-17 6.637e-18
9236.701 4.591e-17 6.484e-18
9238.248 6.211e-17 6.522e-18
9239.795 5.863e-17 6.528e-18
9241.342 5.853e-17 6.651e-18
9242.888 5.516e-17 6.622e-18
9244.436 5.536e-17 6.577e-18
9245.983 4.609e-17 6.654e-18
9247.529 4.838e-17 6.727e-18
9249.077 4.488e-17 6.624e-18
9250.623 4.712e-17 6.692e-18
9252.17 5.462e-17 6.882e-18
9253.718 5.433e-17 6.604e-18
9255.264 6.025e-17 6.64e-18
9256.811 6.46e-17 6.602e-18
9258.358 5.907e-17 6.585e-18
9259.905 5.694e-17 6.656e-18
9261.451 4.906e-17 6.567e-18
9262.999 4.884e-17 6.279e-18
9264.546 4.675e-17 6.37e-18
9266.092 4.478e-17 6.38e-18
9267.64 5.769e-17 6.358e-18
9269.186 5.942e-17 6.443e-18
9270.733 4.376e-17 6.358e-18
9272.281 4.86e-17 6.412e-18
9273.827 5.148e-17 6.252e-18
9275.374 5.508e-17 6.757e-18
9276.92 5.37e-17 6.932e-18
9278.468 3.554e-17 6.794e-18
9280.014 5.491e-17 6.796e-18
9281.561 5.496e-17 6.817e-18
9283.109 5.513e-17 6.976e-18
9284.655 5.066e-17 7.286e-18
9286.202 3.871e-17 7.321e-18
9287.749 3.406e-17 6.936e-18
9289.296 5.023e-17 7.185e-18
9290.842 4.639e-17 7.51e-18
9292.389 6.072e-17 7.716e-18
9293.937 5.802e-17 8.199e-18
9295.483 3.203e-17 7.866e-18
9297.03 4.937e-17 8.107e-18
9298.577 3.669e-17 7.844e-18
9300.124 2.627e-17 7.878e-18
9301.671 4.291e-17 8.054e-18
9303.217 3.216e-17 9e-18
9304.765 4.152e-17 1.349e-17
9306.311 4.591e-17 1.789e-17
9307.858 5.614e-17 1.994e-17
9309.404 6.225e-17 1.95e-17
9310.952 7.239e-17 2.04e-17
9312.499 4.067e-17 2.332e-17
9314.045 2.352e-17 2.84e-17
9315.592 8.249e-17 3.099e-17
9317.139 3.571e-17 2.287e-17
9318.686 -1.838e-18 1.346e-17
9320.233 2.982e-17 1.303e-17
9321.779 4.88e-17 1.958e-17
9323.327 7.157e-17 2.538e-17
9324.873 5.008e-17 2.523e-17
9326.42 4.488e-17 1.984e-17
9327.966 2.843e-17 1.429e-17
9329.514 3.397e-17 1.039e-17
9331.061 4.955e-17 1.102e-17
9332.607 2.903e-17 1.231e-17
9334.154 6.455e-17 1.349e-17
9335.701 5.053e-17 1.435e-17
9337.248 4.566e-17 1.472e-17
9338.794 4.657e-17 1.66e-17
9340.341 8.066e-17 1.844e-17
9341.888 2.623e-17 2.102e-17
9343.435 -6.895e-18 1.71e-17
9344.982 4.725e-17 1.165e-17
9346.528 2.083e-17 8.75e-18
9348.075 3.542e-17 8.354e-18
9349.623 4.979e-17 9.299e-18
9351.169 5.64e-17 1.148e-17
9352.716 4.325e-17 1.333e-17
9354.262 7.514e-17 1.444e-17
9355.809 2.977e-17 1.324e-17
9357.356 1.46e-17 1.127e-17
9358.903 4.311e-17 9.404e-18
9360.45 2.434e-17 8.1e-18
9361.996 4.45e-17 8.504e-18
9363.543 4.918e-17 9.834e-18
9365.089 4.772e-17 1.053e-17
9366.637 3.901e-17 1.201e-17
9368.184 4.155e-17 1.324e-17
9369.73 3.701e-17 1.342e-17
9371.277 5.84e-19 1.287e-17
9372.823 -1.926e-18 1.869e-17
9374.37 1.419e-16 3.159e-17
9375.917 8.401e-17 3.722e-17
9377.464 3.938e-17 4.677e-17
9379.011 6.17e-17 4.517e-17
9380.557 -4.917e-17 2.373e-17
9382.104 2.391e-17 1.269e-17
9383.65 3.556e-17 1.063e-17
9385.198 2.84e-17 9.82e-18
9386.745 4.971e-17 9.363e-18
9388.291 4.328e-17 7.957e-18
9389.838 3.458e-17 6.816e-18
9391.384 4.923e-17 6.903e-18
9392.931 4.509e-17 6.884e-18
9394.477 5.901e-17 7.111e-18
9396.025 3.313e-17 7.71e-18
9397.572 3.534e-17 8.404e-18
9399.118 4.171e-17 9.716e-18
9400.665 7.955e-17 1.161e-17
9402.211 4.083e-17 1.216e-17
9403.758 4.025e-17 1.113e-17
9405.304 4.414e-17 1.077e-17
9406.851 5.625e-17 9.749e-18
9408.398 4.297e-17 8.771e-18
9409.945 3.377e-17 8.127e-18
9411.492 4.253e-17 7.751e-18
9413.038 3.974e-17 7.298e-18
9414.585 3.605e-17 7.346e-18
9416.132 1.702e-17 8.817e-18
9417.678 7.157e-17 1.299e-17
9419.225 5.476e-17 1.495e-17
9420.771 5.986e-17 1.519e-17
9422.318 9.646e-17 1.537e-17
9423.864 2.306e-17 1.456e-17
9425.411 1.834e-17 1.407e-17
9426.958 3.16e-17 1.461e-17
9428.505 2.332e-17 1.082e-17
9430.052 2.734e-17 8.702e-18
9431.598 4.731e-17 7.586e-18
9433.145 5.206e-17 7.42e-18
9434.692 3.7e-17 8.381e-18
9436.238 2.642e-17 1.244e-17
9437.785 1.003e-16 2.716e-17
9439.331 9.953e-17 3.781e-17
9440.878 8.749e-17 3.886e-17
9442.424 2.826e-17 3.099e-17
9443.971 -2.186e-17 1.728e-17
9445.518 1.811e-17 9.735e-18
9447.064 3.531e-17 8.782e-18
9448.611 3.128e-17 8.267e-18
9450.157 4.63e-17 9.001e-18
9451.704 5.04e-17 9.879e-18
9453.25 5.995e-17 1.041e-17
9454.797 3.202e-17 1.172e-17
9456.344 3.266e-17 1.711e-17
9457.89 6.772e-17 2.321e-17
9459.437 1.139e-17 2.332e-17
9460.983 6.615e-17 2.167e-17
9462.53 2.346e-17 1.431e-17
9464.077 2.26e-17 9.125e-18
9465.623 4.138e-17 9.221e-18
9467.17 5.186e-17 9.145e-18
9468.716 2.662e-17 8.409e-18
9470.263 2.993e-17 8.053e-18
9471.809 5.133e-17 8.863e-18
9473.356 3.843e-17 1.037e-17
9474.903 3.313e-17 1.72e-17
9476.449 8.976e-17 2.23e-17
9477.996 5.832e-17 2.586e-17
9479.542 5.637e-17 2.993e-17
9481.089 1.159e-17 2.185e-17
9482.636 1.135e-17 1.127e-17
9484.182 2.457e-17 8.231e-18
9485.729 2.389e-17 7.543e-18
9487.275 3.205e-17 7.295e-18
9488.822 4.096e-17 7.586e-18
9490.368 5.377e-17 9.055e-18
9491.915 5.409e-17 1.026e-17
9493.462 2.711e-17 1.178e-17
9495.007 3.226e-17 1.124e-17
9496.554 4.072e-17 1.086e-17
9498.1 5.052e-17 1.236e-17
9499.647 2.513e-17 1.451e-17
9501.194 2.204e-17 1.784e-17
9502.74 2.218e-17 1.563e-17
9504.287 3.807e-17 1.406e-17
9505.833 3.657e-17 1.281e-17
9507.38 2.126e-17 9.233e-18
9508.926 4.311e-17 7.431e-18
9510.473 4.31e-17 7.518e-18
9512.019 3.935e-17 7.673e-18
9513.565 3.729e-17 8.505e-18
9515.112 2.963e-17 9.548e-18
9516.658 1.798e-17 1.111e-17
9518.205 5.416e-17 1.462e-17
9519.751 3.173e-17 1.445e-17
9521.298 2.896e-17 1.391e-17
9522.845 3.906e-17 1.251e-17
9524.39 1.15e-17 1.003e-17
9525.937 4.426e-17 9.148e-18
9527.483 4.444e-17 9.369e-18
9529.03 3.689e-17 9.057e-18
9530.577 4.278e-17 8.137e-18
9532.123 4.755e-17 7.988e-18
9533.669 2.923e-17 8.87e-18
9535.215 3.626e-17 9.091e-18
9536.762 4.288e-17 9.358e-18
9538.308 4.888e-17 9.123e-18
9539.855 5.265e-17 9.577e-18
9541.402 4.085e-17 9.854e-18
9542.947 3.129e-17 9.989e-18
9544.494 3.744e-17 9.803e-18
9546.04 4.032e-17 8.587e-18
9547.587 4.257e-17 8.135e-18
9549.134 3.752e-17 8.919e-18
9550.679 5.575e-17 1.229e-17
9552.226 3.751e-17 1.574e-17
9553.772 3.927e-17 1.875e-17
9555.319 5.052e-17 1.723e-17
9556.865 4.359e-17 1.24e-17
9558.411 3.264e-17 9.427e-18
9559.958 4.632e-17 9.02e-18
9561.504 3.195e-17 9.617e-18
9563.051 3.933e-17 1.14e-17
9564.596 1.077e-17 1.494e-17
9566.143 4.831e-17 2.06e-17
9567.689 8.019e-17 2.125e-17
9569.236 5.27e-17 1.9e-17
9570.782 6.739e-17 1.653e-17
9572.328 1.856e-17 1.072e-17
9573.875 4.127e-17 8.528e-18
9575.421 4.794e-17 8.326e-18
9576.967 6.373e-17 9.24e-18
9578.514 3.792e-17 9.909e-18
9580.06 5.438e-17 1.015e-17
9581.606 4.023e-17 9.062e-18
9583.152 4.082e-17 8.116e-18
9584.699 4.764e-17 8.145e-18
9586.245 5.53e-17 9.499e-18
9587.791 2.641e-17 1.04e-17
9589.338 3.085e-17 1.069e-17
9590.884 3.866e-17 1.049e-17
9592.43 3.149e-17 1.003e-17
9593.976 4.145e-17 9.342e-18
9595.523 4.34e-17 8.817e-18
9597.069 4.694e-17 8.836e-18
9598.615 4.369e-17 8.556e-18
9600.162 3.286e-17 8.007e-18
9601.707 5.117e-17 8.691e-18
9603.254 5.956e-17 9.227e-18
9604.8 6.397e-17 1.031e-17
9606.346 3.833e-17 1.16e-17
9607.893 2.311e-17 1.112e-17
9609.439 1.696e-17 1.07e-17
9610.985 6.628e-17 1.088e-17
9612.531 5.77e-17 9.682e-18
9614.077 5.059e-17 8.812e-18
9615.624 4.537e-17 9.114e-18
9617.17 4.807e-17 9.873e-18
9618.716 4.092e-17 1.141e-17
9620.262 4.398e-17 1.407e-17
9621.809 4.202e-17 1.409e-17
9623.354 3.013e-17 1.311e-17
9624.901 1.928e-17 1.154e-17
9626.447 2.873e-17 9.693e-18
9627.993 3.42e-17 8.728e-18
9629.539 3.994e-17 8.226e-18
9631.085 2.953e-17 8.253e-18
9632.632 5.425e-17 8.725e-18
9634.177 4.296e-17 9.344e-18
9635.724 5.212e-17 1.008e-17
9637.27 3.466e-17 9.845e-18
9638.816 3.82e-17 9.157e-18
9640.362 4.517e-17 9.102e-18
9641.908 5.001e-17 8.943e-18
9643.455 3.802e-17 8.999e-18
9645.001 4.932e-17 9.869e-18
9646.547 4.205e-17 9.363e-18
9648.093 3.898e-17 8.273e-18
9649.639 3.89e-17 8.629e-18
9651.185 5.673e-17 8.947e-18
9652.731 2.923e-17 8.784e-18
9654.277 5.627e-17 9.347e-18
9655.824 4.113e-17 9.266e-18
9657.369 4.307e-17 9.44e-18
9658.916 4.38e-17 9.956e-18
9660.461 3.321e-17 1.064e-17
9662.008 5.182e-17 1.045e-17
9663.554 4.038e-17 1.002e-17
9665.1 3.312e-17 9.653e-18
9666.646 4.195e-17 1.101e-17
9668.192 4.854e-17 1.235e-17
9669.738 4.13e-17 1.293e-17
9671.283 2.77e-17 1.19e-17
9672.83 5.01e-17 1.109e-17
9674.376 3.455e-17 9.786e-18
9675.922 3.914e-17 9.458e-18
9677.468 5.278e-17 1e-17
9679.014 4.769e-17 1.215e-17
9680.56 5.966e-17 1.48e-17
9682.105 4.525e-17 1.5e-17
9683.652 3.917e-17 1.433e-17
9685.198 2.707e-17 1.268e-17
9686.744 4.108e-17 1.063e-17
9688.29 5.421e-17 9.989e-18
9689.836 3.729e-17 1.087e-17
9691.382 4.105e-17 1.049e-17
9692.928 4.41e-17 1.069e-17
9694.474 3.994e-17 1.033e-17
9696.02 5.114e-17 1.046e-17
9697.565 5.779e-17 1.44e-17
9699.112 6.399e-17 1.734e-17
9700.657 5.447e-17 1.721e-17
9702.204 5.296e-17 1.635e-17
9703.75 5.047e-17 1.294e-17
9705.295 4.617e-17 1.018e-17
9706.842 3.538e-17 8.893e-18
9708.387 3.478e-17 9.332e-18
9709.933 3.892e-17 1.15e-17
9711.48 5.673e-17 1.271e-17
9713.025 6.04e-17 1.349e-17
9714.571 6.099e-17 1.311e-17
9716.117 2.275e-17 1.155e-17
9717.663 5.068e-17 1.436e-17
9719.208 6.734e-17 1.856e-17
9720.754 5.463e-17 1.981e-17
9722.301 3.186e-17 1.981e-17
9723.846 5.709e-17 1.643e-17
9725.392 2.18e-17 1.099e-17
9726.938 2.946e-17 9.973e-18
9728.484 5.992e-17 1.016e-17
9730.03 5.952e-17 9.753e-18
9731.575 3.914e-17 9.769e-18
9733.122 2.114e-17 1.044e-17
9734.667 5.69e-17 1.182e-17
9736.213 5.286e-17 1.386e-17
9737.758 3.334e-17 1.431e-17
9739.305 5.527e-17 1.403e-17
9740.851 3.362e-17 1.321e-17
9742.396 1.52e-17 1.186e-17
9743.942 5.636e-17 1.116e-17
9745.487 5.22e-17 1.108e-17
9747.034 6.783e-17 1.141e-17
9748.579 3.532e-17 1.109e-17
9750.125 3.908e-17 1.028e-17
9751.671 3.841e-17 9.21e-18
9753.216 4.025e-17 9.629e-18
9754.763 3.316e-17 9.884e-18
9756.308 3.406e-17 9.372e-18
9757.854 3.451e-17 9.618e-18
9759.4 5.521e-17 9.717e-18
9760.945 6.263e-17 9.531e-18
9762.491 3.66e-17 9.82e-18
9764.037 5.122e-17 9.332e-18
9765.583 4.559e-17 9.078e-18
9767.128 5.21e-17 9.177e-18
9768.674 5.166e-17 8.794e-18
9770.22 4.948e-17 8.864e-18
9771.765 4.409e-17 9.016e-18
9773.311 5.326e-17 9.177e-18
9774.856 6.361e-17 9.548e-18
9776.403 3.782e-17 9.237e-18
9777.949 6.059e-17 9.995e-18
9779.494 5.448e-17 9.932e-18
9781.04 4.098e-17 9.565e-18
9782.585 4.437e-17 1e-17
9784.131 4.474e-17 9.803e-18
9785.676 6.537e-17 9.944e-18
9787.222 3.791e-17 1.181e-17
9788.768 4.519e-17 1.655e-17
9790.313 7.435e-17 2.227e-17
9791.859 3.262e-17 2.467e-17
9793.404 5.872e-17 2.261e-17
9794.95 1.819e-17 1.811e-17
9796.495 1.934e-17 1.376e-17
9798.041 5.001e-17 1.478e-17
9799.587 7.975e-17 1.657e-17
9801.132 2.512e-17 1.575e-17
9802.678 4.107e-17 1.533e-17
9804.223 2.358e-17 1.257e-17
9805.769 6.169e-17 1.068e-17
9807.315 5.091e-17 1.066e-17
9808.86 3.723e-17 1.101e-17
9810.406 4.742e-17 1.25e-17
9811.951 3.852e-17 1.3e-17
9813.497 4.787e-17 1.291e-17
9815.042 4.475e-17 1.277e-17
9816.588 7.534e-17 1.211e-17
9818.134 5.359e-17 1.118e-17
9819.679 4.174e-17 1.052e-17
9821.225 4.289e-17 1.053e-17
9822.77 4.674e-17 1.02e-17
9824.316 3.023e-17 9.852e-18
9825.862 4.296e-17 1.003e-17
9827.407 5.047e-17 1.058e-17
9828.953 4.39e-17 1.038e-17
9830.498 5.324e-17 1.046e-17
9832.044 4.177e-17 1.018e-17
9833.588 2.028e-17 9.6e-18
9835.134 2.598e-17 9.177e-18
9836.68 4.996e-17 9.581e-18
9838.225 5.035e-17 9.602e-18
9839.771 6.508e-17 9.737e-18
9841.316 2.755e-17 9.298e-18
9842.862 3.157e-17 9.111e-18
9844.407 5.343e-17 9.844e-18
9845.952 3.914e-17 1.215e-17
9847.498 3.226e-17 1.559e-17
9849.043 5.918e-17 1.641e-17
9850.589 6.134e-17 1.653e-17
9852.134 5.329e-17 1.455e-17
9853.679 2.262e-17 1.133e-17
9855.225 3.211e-17 1.003e-17
9856.77 4.494e-17 9.487e-18
9858.316 5.419e-17 9.224e-18
9859.861 5.862e-17 9.728e-18
9861.406 4.143e-17 9.273e-18
9862.951 6.792e-17 1.01e-17
9864.497 5.882e-17 1.008e-17
9866.043 4.126e-17 9.71e-18
9867.587 3.289e-17 9.853e-18
9869.133 1.655e-17 1.385e-17
9870.678 1.26e-16 2.283e-17
9872.224 6.133e-17 2.611e-17
9873.769 4.735e-17 2.754e-17
9875.314 1.155e-16 2.66e-17
9876.86 4.174e-17 1.849e-17
9878.405 -8.896e-20 1.176e-17
9879.95 1.999e-17 1.072e-17
9881.495 4.471e-17 1.042e-17
9883.041 4.12e-17 1.028e-17
9884.586 5.556e-17 1.091e-17
9886.131 5.602e-17 1.07e-17
9887.677 5.021e-17 1.057e-17
9889.221 6.409e-17 1.098e-17
9890.767 3.083e-17 1.075e-17
9892.313 2.009e-17 1.232e-17
9893.857 1.06e-16 1.748e-17
9895.403 6.072e-17 1.89e-17
9896.948 3.783e-17 1.878e-17
9898.493 4.305e-17 1.596e-17
9900.038 8.536e-18 1.216e-17
9901.584 4.492e-17 1.059e-17
9903.129 4.735e-17 1.01e-17
9904.674 4.784e-17 1.003e-17
9906.219 5.292e-17 9.933e-18
9907.764 4.643e-17 9.943e-18
9909.309 3.894e-17 1.003e-17
9910.855 3.182e-17 1.087e-17
9912.4 4.174e-17 1.692e-17
9913.945 9.387e-17 2.451e-17
9915.49 7.888e-17 2.653e-17
9917.035 6.931e-17 2.638e-17
9918.58 9.805e-17 2.327e-17
9920.125 -2.576e-18 1.498e-17
9921.671 2.504e-17 1.129e-17
9923.215 3.98e-17 1.061e-17
9924.761 3.299e-17 1.026e-17
9926.305 5.066e-17 1.03e-17
9927.851 4.882e-17 1.027e-17
9929.395 5.823e-17 1.041e-17
9930.941 5.835e-17 1.05e-17
9932.486 5.407e-17 1.049e-17
9934.031 1.507e-17 1.022e-17
9935.576 3.976e-17 1.055e-17
9937.121 4.639e-17 1.083e-17
9938.666 5.084e-17 1.181e-17
9940.212 5.208e-17 1.62e-17
9941.756 1.394e-17 1.944e-17
9943.302 2.225e-17 2.238e-17
9944.846 2.257e-17 2.689e-17
9946.392 8.729e-17 2.882e-17
9947.936 1.355e-17 2.796e-17
9949.481 7.193e-17 2.669e-17
9951.027 7.71e-17 2.192e-17
9952.571 9.896e-18 1.625e-17
9954.117 6.194e-17 1.653e-17
9955.661 5.736e-17 2.204e-17
9957.206 3.787e-17 2.428e-17
9958.752 2.828e-17 2.52e-17
9960.296 4.228e-17 2.71e-17
9961.841 -1.169e-17 2.553e-17
9963.386 2.096e-17 2.428e-17
9964.931 5.066e-17 2.307e-17
9966.475 2.448e-17 1.875e-17
9968.021 4.885e-17 1.391e-17
9969.566 3.945e-17 1.288e-17
9971.11 6.728e-17 1.507e-17
9972.656 6.584e-17 1.651e-17
9974.2 2.286e-17 1.639e-17
9975.745 4.516e-17 1.617e-17
9977.291 7.158e-17 1.485e-17
9978.835 4.39e-17 1.348e-17
9980.38 4.195e-17 1.308e-17
9981.924 3.501e-17 1.269e-17
9983.47 2.649e-17 1.195e-17
9985.014 6.211e-17 1.18e-17
9986.559 4.636e-17 1.14e-17
9988.104 5.647e-17 1.14e-17
9989.649 4.25e-17 1.141e-17
9991.194 4.449e-17 1.153e-17
9992.738 5.334e-17 1.158e-17
9994.283 5e-17 1.166e-17
9995.827 1.898e-17 1.144e-17
9997.373 1.624e-17 1.201e-17
9998.918 3.561e-17 1.394e-17
10000.462 3.01e-17 1.533e-17
10002.007 3.475e-17 1.566e-17
10003.551 8.193e-17 1.584e-17
10005.096 3.572e-17 1.421e-17
10006.642 5.158e-17 1.309e-17
10008.186 3.953e-17 1.307e-17
10009.731 4.325e-17 1.64e-17
10011.275 4.001e-17 2.678e-17
10012.82 6.959e-17 3.458e-17
10014.364 9.536e-17 3.697e-17
10015.909 1.903e-18 3.586e-17
10017.454 7.025e-17 2.955e-17
10018.999 3.828e-17 1.988e-17
10020.544 2.587e-17 1.549e-17
10022.088 4.268e-17 1.5e-17
10023.633 4.281e-17 1.816e-17
10025.178 4.399e-17 2.225e-17
10026.722 -3.713e-17 2.278e-17
10028.267 6.323e-17 2.291e-17
10029.811 3.627e-17 2.023e-17
10031.356 5.464e-17 1.59e-17
10032.9 3.052e-17 1.364e-17
10034.445 1.886e-17 1.301e-17
10035.99 7.324e-17 1.358e-17
10037.534 1.067e-17 1.32e-17
10039.079 5.459e-17 1.363e-17
10040.623 4.184e-17 1.38e-17
10042.168 8.797e-17 1.583e-17
10043.712 3.366e-17 1.691e-17
10045.257 3.877e-17 1.751e-17
10046.802 6.675e-17 1.741e-17
10048.346 2.16e-17 1.55e-17
10049.891 5.959e-17 1.405e-17
10051.435 3.291e-17 1.337e-17
10052.98 3.65e-17 1.31e-17
10054.525 4.346e-17 1.347e-17
10056.069 5.845e-17 1.382e-17
10057.613 3.217e-17 1.442e-17
10059.157 8.943e-17 1.782e-17
10060.702 4.971e-17 1.985e-17
10062.246 4.955e-17 2.077e-17
10063.791 4.071e-17 2.071e-17
10065.336 1.786e-17 1.875e-17
10066.88 3.063e-17 1.692e-17
10068.425 3.278e-17 1.635e-17
10069.968 4.436e-17 1.746e-17
10071.513 2.534e-17 1.754e-17
10073.058 5.12e-18 1.724e-17
10074.602 4.062e-17 1.693e-17
10076.147 8.194e-18 1.563e-17
10077.691 3.808e-17 1.533e-17
10079.235 2.534e-17 1.595e-17
10080.779 4.252e-17 2.249e-17
10082.324 1.927e-16 3.025e-17
10083.869 4.492e-17 3.182e-17
10085.412 4.831e-17 3.183e-17
10086.957 2.118e-17 2.775e-17
10088.501 4.004e-18 2.044e-17
10090.046 1.298e-17 1.638e-17
10091.59 6.285e-17 1.594e-17
10093.134 2.256e-17 1.517e-17
10094.679 6.19e-17 1.568e-17
10096.223 2.144e-17 1.544e-17
10097.767 4.261e-17 1.61e-17
10099.311 3.296e-17 1.63e-17
10100.856 4.277e-17 1.701e-17
10102.4 3.724e-17 2.062e-17
10103.944 6.032e-17 2.359e-17
10105.489 2.876e-17 2.424e-17
10107.032 3.567e-17 2.396e-17
10108.577 5.997e-17 2.132e-17
10110.121 1.276e-17 1.778e-17
10111.665 3.254e-17 1.66e-17
10113.21 1.175e-18 1.6e-17
10114.753 5.544e-17 1.667e-17
10116.298 2.994e-17 1.653e-17
10117.842 4.049e-17 1.698e-17
10119.386 8.188e-17 1.769e-17
10120.931 3.559e-17 1.893e-17
10122.474 4.407e-17 2.692e-17
10124.019 -1.564e-17 3.463e-17
10125.563 5.345e-17 3.785e-17
10127.107 -2.678e-17 3.739e-17
10128.651 5.316e-17 3.293e-17
10130.195 2.488e-17 2.502e-17
10131.74 3.404e-17 2.042e-17
10133.283 4.465e-17 1.939e-17
10134.828 4.816e-17 1.94e-17
10136.371 4.369e-17 1.905e-17
10137.916 1.359e-17 1.879e-17
10139.46 6.246e-17 1.899e-17
10141.004 3.641e-17 1.883e-17
10142.548 3.067e-17 1.953e-17
10144.092 5.82e-17 2.051e-17
10145.636 1.028e-17 2.061e-17
10147.18 2.717e-17 2.138e-17
10148.724 7.304e-17 2.196e-17
10150.268 1.849e-17 2.211e-17
10151.812 6.709e-17 2.518e-17
10153.356 2.013e-17 2.784e-17
10154.9 -3.405e-17 2.844e-17
10156.444 3.863e-17 2.893e-17
10157.988 4.148e-17 2.765e-17
10159.532 2.502e-17 2.553e-17
10161.076 9.644e-18 2.443e-17
10162.62 9.512e-18 2.423e-17
10164.164 6.873e-17 2.429e-17
10165.707 4.825e-17 2.383e-17
10167.252 5.876e-17 2.432e-17
10168.796 1.105e-16 2.618e-17
10170.339 3.515e-17 3.242e-17
10171.884 1.32e-16 4.12e-17
10173.427 5.392e-17 4.437e-17
10174.971 6.69e-17 4.452e-17
10176.514 -1.955e-17 3.92e-17
10178.059 8.796e-17 3.195e-17
10179.603 2.861e-17 2.691e-17
10181.146 6.018e-17 2.685e-17
10182.69 5.312e-17 2.764e-17
10184.234 2.379e-17 2.754e-17
10185.778 3.814e-17 2.755e-17
10187.322 4.254e-17 2.808e-17
10188.865 2.447e-17 3.335e-17
10190.41 9.436e-17 3.867e-17
10191.953 7.007e-17 4.061e-17
10193.497 -1.809e-17 3.914e-17
10195.04 2.071e-17 3.438e-17
10196.584 4.61e-17 2.907e-17
10198.128 3.141e-17 2.643e-17
10199.672 2.543e-17 2.609e-17
10201.216 3.181e-17 2.729e-17
10202.759 3.551e-17 3e-17
10204.303 2.776e-17 3.237e-17
10205.847 4.155e-17 3.367e-17
10207.39 7.574e-17 3.445e-17
10208.934 -1.504e-17 3.69e-17
10210.477 3.598e-18 4.369e-17
10212.022 9.427e-17 4.872e-17
10213.565 2.9e-17 4.944e-17
10215.109 -3.294e-17 4.559e-17
10216.653 1.278e-17 3.918e-17
10218.196 5.791e-17 3.282e-17
10219.74 -2.108e-17 2.837e-17
10221.283 3.458e-17 2.833e-17
10222.827 6.118e-17 2.92e-17
10224.371 1.299e-16 3.311e-17
10225.914 4.597e-17 3.64e-17
10227.458 3.316e-17 3.916e-17
10229.001 1.26e-16 4.136e-17
10230.545 8.027e-17 4.204e-17
10232.088 5.088e-17 4.042e-17
10233.632 7.127e-17 3.873e-17
10235.176 2.087e-17 3.591e-17
10236.719 7.329e-17 3.352e-17
