# SIMPLE = T / Written by IDL: Sun Jul 7 14:44:38 2019
# BITPIX = -32 / IEEE single precision floating point
# NAXIS = 2 / number of data axes
# NAXIS1 = 311 /Number of positions along axis 1
# NAXIS2 = 2835 /Number of positions along axis 2
# EXTEND = T / FITS dataset may contain extensions
# COMMENT FITS (Flexible Image Transport System) format defined in Astronomy and
# COMMENT Astrophysics Supplement Series v44/p363, v44/p371, v73/p359, v73/p365.
# COMMENT Contact the NASA Science Office of Standards and Technology for the
# COMMENT FITS Definition document #100 and other FITS information.
# BZERO = 0 / offset data range to that of unsigned short
# BSCALE = 1 / default scaling factor
# OBJECT = 'ZTF19aarphwc' / object title
# OBSERVER= 'Lin Yan ' / observer
# IMGTYPE = 'object ' / observation type
# GAIN = 0.72 / e-/adu
# RON = 2.5 / system noise e-
# DICHROIC= 'D55 ' / Dichroic
# APERTURE= '1.5 ' / aperture (arcsecs)
# TURRET = 'APERTURE' / turret position
# LAMPS = '0000000 ' / lamps: D-FeAr-Hg-Ar-Ne-He-InCand
# BFILTER = 'OPEN ' / filter wheel
# OEXPTIME= 900. / originaly req. exposure time
# EXPTIME = 900. / actual exposure time
# UTSHUT = '2019-07-03T10:37:38.281' / UT shutter open
# DATE = '2019-07-03T10:52:59' / file creation date (YYYY-MM-DDThh:mm:ss UTC)
# NAMPSXY = '1 1 ' / number of amplifiers in y x
# CCDSUM = '1 1 ' / binning in x y
# ASEC1 = '[1:460,1:2835]' / amplifier section 1(LL)
# BSEC1 = '[411:460,1:2835]' / bias section 1(LL)
# CSEC1 = '[1:410,1:2835]' / ccd section 1(LL)
# DSEC1 = '[1:410,1:2835]' / data section 1(LL)
# TSEC1 = '[51:410,1:2835]' / trim section 1(LL)
# ROISEC = '[890:1249,565:3399]' / roi section
# DETID = 'CCD44-82_1' / detector ID
# DETNUM = '1 ' / Detector Number
# DETNAM = 'CCD44-82' / detector name
# FPA = 'DBSP_BLUE' / focal plan array
# UTC = '184 10:37:38.3' / <elapsed days> <time-obs>
# UT = '10:37:38.3' / time-obs
# OBSLST = '21:34:50.9' / lst-obs
# RA = '18:00:33.17' / Right Ascencion
# DEC = '+50:17:47.5' / Declination
# HOURANG = 'W03:33:47.6' / Hour angle, TCS format
# HA = '+03:33:47.6' / Hour angle
# AIRMASS = '1.349 ' / Airmass
# TELID = '200 ' / telescope ID
# TELFOCUS= '42.72 mm' / focus position
# CASSPA = '90.99 ' / cass ring angle
# PARALLAC= '92.54 ' / parallactic angle
# DHE = 'SDSU Gen III' / controller info
# CCDTEMP = '161.71 ' / detector mount temp
# SOFTVER = '3.4 ' / software version
# HDR_REV = '4.3 ' / gfits version
# GCOMMENT= ' ' / comment
# ANGLE = '27 deg 17 min' / Grating Angle
# GRATING = '600/4000' / //lines/mm & Blaze
# BIAS = 'bias_DBSP_BLUE_11.fits' / bias frame used
# OVERSCAN= -7 / additional overscan offset applied
# FLAT = 'flat_DBSP_BLUE_11_1.5_D55_600_4000.fits' / flatfield frame used
# FLATSECT= '[150:350]' / flatfield collapse section
# SIGCLIP = 15.0000 / LA Cosmic sigclip
# SIGFRAC = 0.0500000 / LA Cosmic sigfrac
# OBJLIM = 0.500000 / LA Cosmic objlim
# NITER = 4 / LA Cosmic niter
# NCOSMICS= 363 / number of cosmics found
# DATE-OBS= '2019-07-03' / UT date of observation (from UTSHUT keyword)
# MJD = 58667.4428042 / MJD corresponding to UTSHUT
# DISPLINE = 1480 / column/row along dispersion axis to find trace
# NDISP = 50 / number of columns/rows to sum to find and trace profile
# OPTIMALPROFILE = none / number of columns/rows to sum to find and trace profile
# WIDTH_LOCALPROFILE = 200 / width in pixels of local extraction profile
# X_GLOBPROF = [500,2000] / dispersion pixel range for global profile
# OBJ_APER = -4,4 / object extraction aperture
# SKY_APER = -35,-12,12,35 / sky extraction aperture
# ARCFILE1 = arc_DBSP_BLUE_11_0.5_D55_600_4000_FeAr.fits / arc file used
# END
# header info from red frame:
# SIMPLE = T / Written by IDL: Mon Jul 8 14:39:25 2019
# BITPIX = -32 / IEEE single precision floating point
# NAXIS = 2 / number of data axes
# NAXIS1 = 4107 /Number of positions along axis 1
# NAXIS2 = 401 /Number of positions along axis 2
# EXTEND = T / FITS dataset may contain extensions
# COMMENT FITS (Flexible Image Transport System) format defined in Astronomy and
# COMMENT Astrophysics Supplement Series v44/p363, v44/p371, v73/p359, v73/p365.
# COMMENT Contact the NASA Science Office of Standards and Technology for the
# COMMENT FITS Definition document #100 and other FITS information.
# BZERO = 0 / offset data range to that of unsigned short
# BSCALE = 1 / default scaling factor
# OBJECT = 'ZTF19aarphwc' / object title
# OBSERVER= 'Lin Yan ' / observer
# IMGTYPE = 'object ' / observation type
# GAIN = 2.8 / e-/adu
# RON = 8.5 / system noise e-
# DICHROIC= 'D55 ' / Dichroic
# APERTURE= '1.5 ' / aperture (arcsecs)
# TURRET = 'APERTURE' / turret position
# LAMPS = '0000000 ' / lamps: D-FeAr-Hg-Ar-Ne-He-InCand
# RFILTER = 'OPEN ' / filter wheel
# OEXPTIME= 900. / originaly req. exposure time
# EXPTIME = 900. / actual exposure time
# UTSHUT = '2019-07-03T10:37:52.697' / UT shutter open
# DATE = '2019-07-03T10:53:15' / file creation date (YYYY-MM-DDThh:mm:ss UTC)
# NAMPSXY = '1 1 ' / number of amplifiers in y x
# CCDSUM = '1 1 ' / binning in x y
# ASEC1 = '[1:4141,1:440]' / amplifier section 1(LL)
# BSEC1 = '[4122:4141,1:440]' / bias section 1(LL)
# CSEC1 = '[1:4121,1:440]' / ccd section 1(LL)
# DSEC1 = '[1:4121,1:440]' / data section 1(LL)
# TSEC1 = '[8:4121,1:440]' / trim section 1(LL)
# ROISEC = '[1:4114,780:1219]' / roi section
# DETID = 'LBNL_4Kx2K_1' / detector ID
# DETNUM = '1 ' / Detector Number
# DETNAM = 'LBNL_4Kx2K' / detector name
# FPA = 'DBSP_RED2' / focal plan array
# UTC = '184 10:37:52.7' / <elapsed days> <time-obs>
# UT = '10:37:52.7' / time-obs
# OBSLST = '21:35:05.4' / lst-obs
# RA = '18:00:33.18' / Right Ascencion
# DEC = '+50:17:47.5' / Declination
# HOURANG = 'W03:34:02.0' / Hour angle, TCS format
# HA = '+03:34:02.0' / Hour angle
# AIRMASS = '1.350 ' / Airmass
# TELID = '200 ' / telescope ID
# TELFOCUS= '42.72 mm' / focus position
# CASSPA = '90.99 ' / cass ring angle
# PARALLAC= '92.49 ' / parallactic angle
# DHE = 'SDSU Gen III' / controller info
# CCDTEMP = '130.020 ' / detector mount temp
# SOFTVER = '3.4 ' / software version
# HDR_REV = '4.3 ' / gfits version
# GCOMMENT= ' ' / comment
# ANGLE = '24 deg 38 min' / Grating Angle
# GRATING = '316/7500' / lines/mm & Blaze
# CRVAL1 = 48.519459
# CRVAL2 = 33.313332
# BIAS = 'bias_DBSP_RED2_11.fits' / bias frame used
# OVERSCAN= 3 / additional overscan offset applied
# FLAT = 'flat_DBSP_RED2_11_1.5_D55_316_7500.fits' / flatfield frame used
# FLATSECT= '[80:280]' / flatfield collapse section
# SIGCLIP = 10.0000 / LA Cosmic sigclip
# SIGFRAC = 0.0500000 / LA Cosmic sigfrac
# OBJLIM = 0.500000 / LA Cosmic objlim
# NITER = 4 / LA Cosmic niter
# NCOSMICS= 4582 / number of cosmics found
# DATE-OBS= '2019-07-03' / UT date of observation (from UTSHUT keyword)
# MJD = 58667.4429709 / MJD corresponding to UTSHUT
# DISPLINE = 1350 / column/row along dispersion axis to find trace
# NDISP = 50 / number of columns/rows to sum to find and trace profile
# OPTIMALPROFILE = none / number of columns/rows to sum to find and trace profile
# WIDTH_LOCALPROFILE = 200 / width in pixels of local extraction profile
# X_GLOBPROF = [500,4000] / dispersion pixel range for global profile
# OBJ_APER = -7,7 / object extraction aperture
# SKY_APER = -35,-12,12,35 / sky extraction aperture
# ARCFILE1 = arc_DBSP_RED2_11_0.5_D55_316_7500_ArNeHe.fits / arc file used
# END
# wave_air           flux            err
# (A)  (erg/s/cm2/A)  (erg/s/cm2/A)
3100.58 9.967e-16 3.133e-16
3101.625 2.053e-16 3.204e-16
3102.671 -3.86e-16 3.092e-16
3103.715 -7.777e-17 3.018e-16
3104.76 -5.734e-17 3.001e-16
3105.805 -9.147e-17 2.903e-16
3106.851 -5.75e-17 2.95e-16
3107.895 5.044e-16 2.881e-16
3108.941 4.296e-17 2.654e-16
3109.986 6.308e-18 2.749e-16
3111.032 2.581e-17 2.716e-16
3112.076 -1.79e-16 2.689e-16
3113.122 -1.322e-16 2.775e-16
3114.168 -8.576e-17 2.591e-16
3115.213 -5.526e-16 2.646e-16
3116.259 -2.829e-16 2.536e-16
3117.305 1.125e-17 2.495e-16
3118.351 1.964e-16 2.371e-16
3119.396 -1.153e-16 2.591e-16
3120.442 5.404e-16 2.365e-16
3121.488 -1.897e-16 2.366e-16
3122.535 2.915e-16 2.333e-16
3123.58 2.099e-16 2.398e-16
3124.626 3.475e-16 2.305e-16
3125.673 2.96e-16 2.266e-16
3126.719 4.163e-17 2.224e-16
3127.765 3.6e-16 2.255e-16
3128.812 -1.314e-16 2.231e-16
3129.858 -6.13e-17 2.057e-16
3130.905 2.581e-17 2.07e-16
3131.951 -2.709e-17 2.193e-16
3132.998 -2.5e-17 2.045e-16
3134.045 1.782e-16 1.98e-16
3135.091 2.105e-16 2.048e-16
3136.138 3.57e-17 1.848e-16
3137.185 -3.694e-17 1.771e-16
3138.232 2.238e-16 1.933e-16
3139.279 -2.058e-16 1.941e-16
3140.326 -2.973e-16 1.699e-16
3141.374 9.888e-18 1.867e-16
3142.421 2.021e-17 1.757e-16
3143.468 -3.749e-16 1.771e-16
3144.515 -1.067e-16 1.828e-16
3145.563 -3.183e-16 1.667e-16
3146.611 2.708e-16 1.847e-16
3147.657 2.508e-16 1.655e-16
3148.705 -1.77e-16 1.615e-16
3149.753 2.991e-16 1.732e-16
3150.801 7.588e-17 1.555e-16
3151.848 4.596e-17 1.488e-16
3152.896 3.377e-17 1.427e-16
3153.944 2.44e-16 1.485e-16
3154.991 -9.204e-17 1.479e-16
3156.04 -1.196e-17 1.286e-16
3157.088 1.298e-16 1.324e-16
3158.136 2.837e-16 1.372e-16
3159.184 1.584e-16 1.218e-16
3160.232 1.613e-16 1.299e-16
3161.281 3.571e-16 1.302e-16
3162.33 7.426e-17 1.278e-16
3163.377 7.089e-17 1.233e-16
3164.426 6.168e-17 1.229e-16
3165.475 1.609e-16 1.257e-16
3166.524 1.238e-16 1.13e-16
3167.572 -2.582e-17 1.141e-16
3168.621 -3.195e-17 1.055e-16
3169.67 3.736e-18 1.184e-16
3170.719 1.076e-16 1.123e-16
3171.767 2.153e-16 1.158e-16
3172.816 -5.86e-17 1.15e-16
3173.866 -1.991e-17 1.159e-16
3174.914 2.6e-16 1.257e-16
3175.963 4.549e-17 1.086e-16
3177.013 7.073e-17 1.179e-16
3178.063 4.102e-16 1.162e-16
3179.111 1.038e-16 1.119e-16
3180.161 1.764e-16 1.231e-16
3181.211 2.941e-17 1.192e-16
3182.26 -4.759e-17 1.176e-16
3183.309 2.247e-17 1.293e-16
3184.359 -8.118e-17 1.234e-16
3185.409 1.955e-16 1.246e-16
3186.459 2.6e-16 1.233e-16
3187.508 -3.217e-18 1.257e-16
3188.558 2.3e-16 1.14e-16
3189.608 -1.594e-16 1.262e-16
3190.658 1.323e-16 1.133e-16
3191.708 1.952e-16 1.121e-16
3192.758 1.553e-16 1.058e-16
3193.809 1.384e-16 1.09e-16
3194.858 1.966e-16 1.086e-16
3195.909 2.032e-16 9.965e-17
3196.96 -2.364e-17 9.984e-17
3198.01 -1.383e-16 9.776e-17
3199.06 8.181e-18 9.347e-17
3200.111 6.221e-17 9.014e-17
3201.162 1.767e-16 8.907e-17
3202.212 1.388e-17 9.015e-17
3203.262 -2.965e-17 9.192e-17
3204.313 1.801e-17 8.534e-17
3205.365 1.662e-18 8.254e-17
3206.415 2.311e-16 8.367e-17
3207.466 1.459e-16 8.759e-17
3208.517 -1.905e-16 7.832e-17
3209.569 2.271e-16 9.904e-17
3210.619 7.438e-17 9.62e-17
3211.67 1.045e-16 9.616e-17
3212.722 5.719e-17 9.27e-17
3213.773 7.366e-17 9.141e-17
3214.824 7.045e-17 8.797e-17
3215.876 1.566e-16 9.164e-17
3216.927 2.672e-17 8.442e-17
3217.979 1.883e-16 9.155e-17
3219.03 1.914e-16 9.057e-17
3220.082 8.803e-17 8.418e-17
3221.134 7.324e-18 7.781e-17
3222.185 9.927e-17 8.522e-17
3223.237 -6.089e-17 8.045e-17
3224.289 8.864e-17 8.276e-17
3225.341 2.11e-17 8.244e-17
3226.393 1.315e-16 8.389e-17
3227.445 -5.243e-17 8.23e-17
3228.497 -1.452e-17 7.806e-17
3229.55 7.336e-17 8.651e-17
3230.601 1.199e-16 8.887e-17
3231.654 -1.741e-17 8.014e-17
3232.706 1.008e-16 8.416e-17
3233.759 1.132e-16 8.82e-17
3234.811 1.324e-17 8.095e-17
3235.864 1.808e-16 8.603e-17
3236.916 1.477e-16 8.34e-17
3237.969 3.206e-16 9.169e-17
3239.021 1.014e-17 8.382e-17
3240.074 6.536e-17 8.041e-17
3241.127 2.194e-16 8.283e-17
3242.179 1.754e-17 7.757e-17
3243.233 -5.457e-17 7.316e-17
3244.286 1.431e-16 8.892e-17
3245.339 1.008e-16 7.395e-17
3246.392 1.051e-16 7.813e-17
3247.445 1.333e-16 7.23e-17
3248.498 9.304e-17 6.93e-17
3249.552 1.107e-16 7.02e-17
3250.605 1.311e-16 6.609e-17
3251.658 -9.63e-17 6.189e-17
3252.712 1.045e-16 6.604e-17
3253.765 9.47e-17 6.417e-17
3254.818 6.715e-17 6.271e-17
3255.872 5.463e-17 6.014e-17
3256.926 1.345e-16 6.262e-17
3257.979 1.361e-17 6.119e-17
3259.033 6.328e-17 6.188e-17
3260.087 -1.462e-17 5.856e-17
3261.141 1.506e-16 6.226e-17
3262.195 5.989e-17 5.767e-17
3263.249 4.661e-17 5.709e-17
3264.303 6.04e-17 5.619e-17
3265.358 9.943e-17 5.644e-17
3266.411 1.752e-16 5.774e-17
3267.466 1.52e-16 5.616e-17
3268.52 1.109e-16 5.256e-17
3269.574 2.039e-17 4.904e-17
3270.628 1.606e-16 5.377e-17
3271.683 4.482e-17 5.104e-17
3272.738 -8.503e-17 4.644e-17
3273.792 1.955e-16 5.391e-17
3274.846 9.593e-17 5.161e-17
3275.901 1.523e-16 5.037e-17
3276.956 1.486e-16 5.096e-17
3278.01 1.173e-16 5.029e-17
3279.066 1.08e-16 4.91e-17
3280.121 8.763e-17 4.957e-17
3281.176 4.922e-17 4.478e-17
3282.23 4.842e-17 4.724e-17
3283.286 1.162e-16 5.142e-17
3284.341 9.173e-17 5.43e-17
3285.395 7.305e-17 5.359e-17
3286.451 -2.272e-17 5.165e-17
3287.506 1.374e-16 5.993e-17
3288.562 1.547e-17 5.042e-17
3289.617 1.52e-16 5.81e-17
3290.672 1.569e-17 5.347e-17
3291.728 2.675e-18 5.711e-17
3292.784 1.646e-16 6.542e-17
3293.839 -1.784e-17 6.032e-17
3294.895 1.066e-16 6.769e-17
3295.951 7.894e-18 6.216e-17
3297.007 9.138e-17 6.34e-17
3298.062 1.053e-16 6.407e-17
3299.118 9.516e-17 6.252e-17
3300.174 7.544e-17 5.964e-17
3301.23 -5.767e-17 5.285e-17
3302.286 1.395e-16 6.153e-17
3303.342 1.279e-16 5.81e-17
3304.399 9.278e-17 5.443e-17
3305.454 -1.931e-17 5.11e-17
3306.511 9.943e-19 5.011e-17
3307.567 4.57e-17 4.883e-17
3308.624 8.849e-17 5.049e-17
3309.68 1.147e-17 4.897e-17
3310.736 5.771e-18 4.885e-17
3311.793 1.076e-16 5.235e-17
3312.849 8.623e-17 5.163e-17
3313.906 -2.204e-17 4.631e-17
3314.963 8.894e-17 5.148e-17
3316.02 1.786e-16 5.335e-17
3317.076 9.345e-17 4.92e-17
3318.133 6.439e-17 4.936e-17
3319.19 1.117e-16 4.948e-17
3320.248 1.527e-18 4.613e-17
3321.304 5.848e-17 4.715e-17
3322.361 3.293e-17 4.412e-17
3323.419 -1.623e-17 4.069e-17
3324.476 1.13e-16 4.414e-17
3325.533 1.725e-16 4.531e-17
3326.59 1.02e-16 4.18e-17
3327.648 5.626e-17 3.869e-17
3328.704 1.069e-16 3.964e-17
3329.762 1.008e-17 3.388e-17
3330.82 5.597e-17 3.78e-17
3331.878 1.135e-16 3.77e-17
3332.935 8.649e-17 3.732e-17
3333.993 9.544e-17 3.7e-17
3335.051 7.006e-17 3.628e-17
3336.109 7.287e-17 3.609e-17
3337.166 2.082e-16 4.272e-17
3338.224 3.411e-17 3.584e-17
3339.282 7.009e-17 3.754e-17
3340.339 9.348e-17 3.781e-17
3341.398 1.42e-16 3.897e-17
3342.456 5.965e-17 3.652e-17
3343.514 9.725e-17 3.905e-17
3344.572 6.527e-17 3.753e-17
3345.63 1.045e-16 3.851e-17
3346.689 1.187e-16 3.914e-17
3347.748 1.127e-16 3.878e-17
3348.805 1.025e-16 3.908e-17
3349.864 2.578e-17 3.594e-17
3350.923 4.107e-17 3.67e-17
3351.982 -1.571e-17 3.556e-17
3353.04 6.38e-17 3.774e-17
3354.099 1.05e-16 3.892e-17
3355.158 3.658e-17 3.622e-17
3356.216 8.256e-17 3.803e-17
3357.275 6.046e-17 3.963e-17
3358.334 1.246e-16 3.966e-17
3359.393 1.384e-16 3.832e-17
3360.451 7.822e-17 3.911e-17
3361.511 1.567e-17 3.499e-17
3362.57 1.186e-16 3.718e-17
3363.629 1.193e-16 3.627e-17
3364.688 1.845e-17 3.429e-17
3365.747 8.301e-17 3.82e-17
3366.807 1.049e-16 4.241e-17
3367.866 1.023e-16 4.581e-17
3368.925 4.86e-17 4.705e-17
3369.985 8.014e-18 4.668e-17
3371.045 4.534e-17 4.751e-17
3372.104 6.659e-17 4.704e-17
3373.164 1.138e-16 4.676e-17
3374.223 1.682e-16 4.809e-17
3375.283 1.232e-16 4.521e-17
3376.342 1.022e-16 4.237e-17
3377.403 8.922e-17 4.157e-17
3378.463 5.486e-17 3.927e-17
3379.522 3.288e-17 3.782e-17
3380.582 7.393e-17 3.772e-17
3381.642 9.481e-17 3.777e-17
3382.703 1.648e-16 3.871e-17
3383.762 8.051e-17 3.508e-17
3384.823 1.079e-16 3.49e-17
3385.883 1.304e-16 3.57e-17
3386.944 9.556e-17 3.41e-17
3388.003 5.035e-17 3.137e-17
3389.064 3.377e-17 2.984e-17
3390.125 1.162e-17 2.798e-17
3391.184 6.69e-17 3.025e-17
3392.245 4.721e-17 2.882e-17
3393.306 6.13e-17 2.962e-17
3394.367 1.845e-17 2.817e-17
3395.427 6.506e-17 2.836e-17
3396.488 5.198e-18 2.738e-17
3397.549 2.086e-17 2.751e-17
3398.61 1.186e-16 3.074e-17
3399.67 2.951e-17 2.799e-17
3400.732 1.12e-16 3.062e-17
3401.793 7.522e-17 3e-17
3402.854 1.859e-17 2.581e-17
3403.914 4.3e-17 2.7e-17
3404.976 7.184e-17 2.969e-17
3406.037 4.593e-17 2.756e-17
3407.098 2.288e-17 2.708e-17
3408.159 6.838e-17 2.896e-17
3409.221 4.45e-17 2.748e-17
3410.283 3.574e-17 2.864e-17
3411.343 8.524e-17 2.985e-17
3412.405 5.693e-17 2.949e-17
3413.467 3.526e-17 2.962e-17
3414.529 8.366e-17 3.116e-17
3415.59 8.243e-17 3.265e-17
3416.652 6.943e-17 3.184e-17
3417.714 9.428e-17 3.442e-17
3418.775 6.313e-17 3.249e-17
3419.837 7.465e-18 3.076e-17
3420.899 9.174e-17 3.398e-17
3421.961 5.968e-17 3.233e-17
3423.023 -2.218e-17 2.897e-17
3424.085 3.934e-17 3.122e-17
3425.147 4.547e-17 3.183e-17
3426.21 7.545e-17 3.284e-17
3427.271 1.075e-16 3.29e-17
3428.334 4.045e-17 3.042e-17
3429.396 1.01e-16 3.255e-17
3430.458 3.535e-17 3.074e-17
3431.521 4.863e-17 3.07e-17
3432.583 -2.778e-17 2.612e-17
3433.646 4.733e-17 3.054e-17
3434.708 3.397e-17 3.052e-17
3435.771 3.277e-17 2.992e-17
3436.834 3.941e-17 2.988e-17
3437.897 -1.169e-17 2.874e-17
3438.959 3.626e-17 2.866e-17
3440.022 4.011e-17 2.787e-17
3441.085 4.161e-18 2.702e-17
3442.147 7.293e-17 2.753e-17
3443.21 4.251e-17 2.661e-17
3444.273 1.383e-17 2.509e-17
3445.337 7.379e-17 2.758e-17
3446.399 2.098e-17 2.519e-17
3447.462 3.45e-17 2.475e-17
3448.526 4.877e-17 2.557e-17
3449.589 6.417e-17 2.779e-17
3450.652 8.787e-17 2.826e-17
3451.716 5.897e-17 2.993e-17
3452.779 2.713e-17 2.835e-17
3453.842 8.753e-18 2.795e-17
3454.906 7.002e-17 2.991e-17
3455.969 3.695e-17 2.749e-17
3457.033 2.221e-17 2.638e-17
3458.096 2.814e-17 2.664e-17
3459.16 5.007e-17 2.692e-17
3460.224 7.31e-17 2.684e-17
3461.288 6.022e-17 2.696e-17
3462.351 6.618e-17 2.641e-17
3463.415 3.626e-17 2.395e-17
3464.479 6.466e-17 2.608e-17
3465.543 7.633e-17 2.626e-17
3466.607 4.155e-17 2.471e-17
3467.671 2.67e-17 2.459e-17
3468.736 5.672e-17 2.469e-17
3469.799 1.134e-17 2.388e-17
3470.863 -4.79e-18 2.294e-17
3471.928 5.963e-17 2.55e-17
3472.992 6.924e-17 2.527e-17
3474.056 2.279e-17 2.396e-17
3475.121 2.751e-17 2.311e-17
3476.185 5.642e-17 2.568e-17
3477.249 5.151e-17 2.701e-17
3478.314 4.55e-17 2.823e-17
3479.379 -4.121e-18 2.845e-17
3480.444 4.195e-17 3.256e-17
3481.508 6.007e-17 3.348e-17
3482.573 7.474e-18 3.255e-17
3483.638 3.144e-18 3.105e-17
3484.703 9.12e-17 3.232e-17
3485.767 -4.377e-17 2.761e-17
3486.832 9.342e-17 3.128e-17
3487.897 6.089e-17 2.959e-17
3488.961 9.428e-17 2.975e-17
3490.027 1.598e-17 2.543e-17
3491.092 3.679e-17 2.582e-17
3492.157 -1.587e-17 2.387e-17
3493.222 2.817e-17 2.427e-17
3494.287 6.405e-17 2.465e-17
3495.353 3.559e-17 2.405e-17
3496.419 2.811e-17 2.237e-17
3497.483 2.592e-17 2.169e-17
3498.549 6.351e-17 2.296e-17
3499.615 2.689e-17 2.196e-17
3500.679 1.877e-17 2.114e-17
3501.745 7.584e-17 2.202e-17
3502.811 1.113e-17 1.915e-17
3503.877 4.253e-17 2.049e-17
3504.942 6.838e-17 2.084e-17
3506.008 2.374e-17 1.947e-17
3507.074 1.565e-17 1.868e-17
3508.14 4.543e-17 1.938e-17
3509.205 -1.83e-18 1.919e-17
3510.271 -1.267e-17 1.803e-17
3511.338 4.393e-17 2.015e-17
3512.403 1.367e-17 1.875e-17
3513.469 2.669e-17 1.903e-17
3514.536 3.548e-17 1.87e-17
3515.602 7.206e-18 1.757e-17
3516.667 5.729e-17 1.965e-17
3517.734 4.323e-17 1.93e-17
3518.801 6.983e-17 1.876e-17
3519.867 5.328e-17 1.863e-17
3520.933 4.123e-17 1.769e-17
3521.999 6.275e-17 1.887e-17
3523.066 -9.431e-18 1.697e-17
3524.132 2.143e-17 1.7e-17
3525.199 1.984e-17 1.672e-17
3526.266 5.626e-17 1.852e-17
3527.333 4.577e-17 1.851e-17
3528.399 3.958e-17 1.788e-17
3529.466 5.684e-17 1.822e-17
3530.533 6.358e-17 1.945e-17
3531.599 8.302e-17 1.976e-17
3532.666 6.66e-17 1.96e-17
3533.733 3.065e-17 1.819e-17
3534.8 1.022e-16 2.111e-17
3535.867 7.444e-17 1.983e-17
3536.934 4.295e-17 1.923e-17
3538.001 5.028e-17 2.033e-17
3539.069 4.263e-17 2.13e-17
3540.135 8.043e-17 2.323e-17
3541.203 5.545e-17 2.465e-17
3542.27 1.347e-16 2.836e-17
3543.337 1.133e-16 2.973e-17
3544.404 6.732e-17 2.918e-17
3545.472 9.744e-17 2.953e-17
3546.54 8.563e-17 2.887e-17
3547.607 7.856e-17 2.835e-17
3548.674 5.859e-17 2.683e-17
3549.742 4.98e-17 2.644e-17
3550.81 1.001e-16 2.74e-17
3551.877 1.129e-16 2.75e-17
3552.945 8.84e-17 2.8e-17
3554.013 1.315e-16 2.873e-17
3555.08 8.843e-17 2.819e-17
3556.148 6.862e-17 2.679e-17
3557.217 5.878e-17 2.599e-17
3558.285 5.478e-17 2.552e-17
3559.352 1.211e-16 2.678e-17
3560.42 6.218e-17 2.548e-17
3561.489 2.59e-17 2.362e-17
3562.557 1.123e-16 2.527e-17
3563.624 1.484e-16 2.556e-17
3564.693 1.162e-16 2.436e-17
3565.761 6.911e-17 2.265e-17
3566.829 1.023e-16 2.302e-17
3567.898 1.015e-16 2.29e-17
3568.966 9.18e-17 2.215e-17
3570.035 1.42e-16 2.249e-17
3571.103 8.85e-17 2.102e-17
3572.171 1.147e-16 2.153e-17
3573.24 7.62e-17 1.985e-17
3574.308 7.481e-17 1.975e-17
3575.377 7.137e-17 1.894e-17
3576.446 1.056e-16 1.997e-17
3577.515 8.878e-17 1.881e-17
3578.583 7.683e-17 1.814e-17
3579.652 1.372e-16 1.963e-17
3580.721 9.463e-17 1.785e-17
3581.79 1.1e-16 1.819e-17
3582.859 1.017e-16 1.788e-17
3583.928 9.026e-17 1.751e-17
3584.997 8.977e-17 1.7e-17
3586.066 1.494e-16 1.859e-17
3587.135 1.451e-16 1.819e-17
3588.204 1.406e-16 1.838e-17
3589.274 1.24e-16 1.749e-17
3590.342 9.787e-17 1.673e-17
3591.412 1.538e-16 1.875e-17
3592.481 1.147e-16 1.73e-17
3593.551 6.656e-17 1.652e-17
3594.62 1.187e-16 1.795e-17
3595.689 9.099e-17 1.699e-17
3596.759 1.118e-16 1.775e-17
3597.828 1.287e-16 1.842e-17
3598.898 1.2e-16 1.832e-17
3599.968 1.627e-16 1.936e-17
3601.038 1.234e-16 1.819e-17
3602.107 1.147e-16 1.769e-17
3603.177 1.255e-16 1.816e-17
3604.247 1.472e-16 1.907e-17
3605.316 1.082e-16 1.816e-17
3606.386 1.376e-16 1.888e-17
3607.456 1.184e-16 1.831e-17
3608.526 1.395e-16 1.881e-17
3609.596 1.39e-16 1.912e-17
3610.666 1.473e-16 1.925e-17
3611.736 1.204e-16 1.906e-17
3612.807 1.636e-16 1.994e-17
3613.876 1.473e-16 2.021e-17
3614.947 1.306e-16 2.165e-17
3616.017 1.138e-16 2.109e-17
3617.087 8.341e-17 2.115e-17
3618.157 1.38e-16 2.244e-17
3619.228 1.703e-16 2.318e-17
3620.299 1.912e-16 2.396e-17
3621.368 1.255e-16 2.246e-17
3622.439 1.487e-16 2.29e-17
3623.51 1.264e-16 2.223e-17
3624.581 1.533e-16 2.275e-17
3625.651 1.571e-16 2.28e-17
3626.722 1.085e-16 2.145e-17
3627.793 8.499e-17 2.026e-17
3628.863 1.427e-16 2.168e-17
3629.934 1.392e-16 2.224e-17
3631.005 1.713e-16 2.394e-17
3632.076 1.001e-16 2.231e-17
3633.146 1.028e-16 2.259e-17
3634.217 1.181e-16 2.292e-17
3635.289 1.168e-16 2.283e-17
3636.359 1.398e-16 2.292e-17
3637.43 1.35e-16 2.259e-17
3638.502 1.111e-16 2.174e-17
3639.573 7.126e-17 2.078e-17
3640.644 8.196e-17 2.055e-17
3641.715 1.64e-16 2.27e-17
3642.787 1.165e-16 2.079e-17
3643.858 1.435e-16 2.152e-17
3644.929 1.303e-16 2.092e-17
3646.0 1.528e-16 2.123e-17
3647.072 7.237e-17 1.97e-17
3648.143 8.606e-17 2.055e-17
3649.215 1.023e-16 2.232e-17
3650.287 6.773e-17 2.272e-17
3651.358 9.565e-17 2.316e-17
3652.429 1.079e-16 2.218e-17
3653.501 1.291e-16 2.168e-17
3654.573 9.537e-17 2.054e-17
3655.644 1.078e-16 2.077e-17
3656.716 1.788e-16 2.112e-17
3657.788 1.496e-16 1.937e-17
3658.861 9.254e-17 1.778e-17
3659.932 1.134e-16 1.868e-17
3661.004 9.086e-17 1.809e-17
3662.076 1.226e-16 1.945e-17
3663.149 1.365e-16 2.021e-17
3664.22 1.705e-16 2.075e-17
3665.292 1.162e-16 1.894e-17
3666.365 1.146e-16 1.784e-17
3667.436 1.407e-16 1.764e-17
3668.509 1.203e-16 1.66e-17
3669.581 1.249e-16 1.686e-17
3670.654 1.296e-16 1.668e-17
3671.725 1.102e-16 1.646e-17
3672.798 1.326e-16 1.699e-17
3673.871 1.388e-16 1.661e-17
3674.943 1.555e-16 1.739e-17
3676.015 1.306e-16 1.618e-17
3677.088 1.114e-16 1.56e-17
3678.161 1.347e-16 1.629e-17
3679.233 1.586e-16 1.67e-17
3680.306 1.479e-16 1.686e-17
3681.379 1.537e-16 1.66e-17
3682.452 1.371e-16 1.648e-17
3683.524 1.094e-16 1.519e-17
3684.597 1.494e-16 1.677e-17
3685.67 1.264e-16 1.63e-17
3686.742 1.149e-16 1.559e-17
3687.815 1.062e-16 1.568e-17
3688.889 1.554e-16 1.72e-17
3689.962 1.315e-16 1.646e-17
3691.034 1.075e-16 1.628e-17
3692.108 1.428e-16 1.734e-17
3693.181 1.182e-16 1.666e-17
3694.254 1.101e-16 1.691e-17
3695.327 9.124e-17 1.618e-17
3696.4 1.17e-16 1.738e-17
3697.474 1.251e-16 1.767e-17
3698.546 1.195e-16 1.866e-17
3699.62 1.444e-16 1.947e-17
3700.694 1.343e-16 1.979e-17
3701.767 1.143e-16 1.956e-17
3702.84 1.044e-16 1.901e-17
3703.914 1.109e-16 1.918e-17
3704.988 9.37e-17 1.888e-17
3706.061 8.02e-17 1.876e-17
3707.134 9.605e-17 1.871e-17
3708.208 1.338e-16 1.9e-17
3709.282 1.323e-16 1.901e-17
3710.355 1.109e-16 1.855e-17
3711.429 1.531e-16 1.928e-17
3712.503 1.486e-16 1.917e-17
3713.578 7.643e-17 1.72e-17
3714.651 1.152e-16 1.819e-17
3715.725 1.146e-16 1.805e-17
3716.799 1.031e-16 1.718e-17
3717.872 1.266e-16 1.769e-17
3718.947 1.131e-16 1.723e-17
3720.021 1.373e-16 1.755e-17
3721.095 1.203e-16 1.729e-17
3722.169 1.308e-16 1.746e-17
3723.243 6.292e-17 1.546e-17
3724.318 1.099e-16 1.668e-17
3725.391 9.072e-17 1.623e-17
3726.466 8.174e-17 1.629e-17
3727.54 1.178e-16 1.73e-17
3728.615 1.164e-16 1.666e-17
3729.689 1.125e-16 1.69e-17
3730.763 9.797e-17 1.695e-17
3731.838 1.005e-16 1.762e-17
3732.912 1.181e-16 1.832e-17
3733.987 1.07e-16 1.839e-17
3735.062 1.259e-16 1.877e-17
3736.137 1.229e-16 1.818e-17
3737.21 1.123e-16 1.802e-17
3738.285 1.465e-16 1.926e-17
3739.36 1.602e-16 1.993e-17
3740.435 1.417e-16 1.969e-17
3741.51 1.633e-16 1.945e-17
3742.585 1.229e-16 1.852e-17
3743.66 1.577e-16 1.869e-17
3744.734 1.297e-16 1.759e-17
3745.809 1.207e-16 1.742e-17
3746.884 1.372e-16 1.71e-17
3747.96 1.32e-16 1.695e-17
3749.034 1.35e-16 1.69e-17
3750.109 1.477e-16 1.696e-17
3751.185 1.185e-16 1.638e-17
3752.259 1.222e-16 1.629e-17
3753.335 1.509e-16 1.652e-17
3754.41 1.661e-16 1.701e-17
3755.486 1.535e-16 1.67e-17
3756.56 1.739e-16 1.703e-17
3757.636 1.554e-16 1.605e-17
3758.712 1.363e-16 1.565e-17
3759.787 1.616e-16 1.615e-17
3760.862 1.193e-16 1.508e-17
3761.938 1.175e-16 1.477e-17
3763.014 1.517e-16 1.51e-17
3764.088 1.547e-16 1.537e-17
3765.164 1.327e-16 1.471e-17
3766.24 1.568e-16 1.532e-17
3767.316 1.266e-16 1.438e-17
3768.391 1.461e-16 1.473e-17
3769.467 1.319e-16 1.408e-17
3770.543 1.513e-16 1.477e-17
3771.618 1.452e-16 1.518e-17
3772.694 1.593e-16 1.563e-17
3773.77 1.634e-16 1.567e-17
3774.847 1.618e-16 1.554e-17
3775.922 1.672e-16 1.55e-17
3776.998 1.673e-16 1.589e-17
3778.074 1.424e-16 1.504e-17
3779.15 1.692e-16 1.534e-17
3780.226 1.696e-16 1.534e-17
3781.302 1.589e-16 1.511e-17
3782.379 1.504e-16 1.488e-17
3783.454 1.774e-16 1.55e-17
3784.531 1.832e-16 1.569e-17
3785.607 1.465e-16 1.499e-17
3786.684 1.735e-16 1.542e-17
3787.759 1.605e-16 1.475e-17
3788.836 1.504e-16 1.482e-17
3789.913 1.759e-16 1.544e-17
3790.988 1.572e-16 1.557e-17
3792.065 1.573e-16 1.571e-17
3793.142 1.706e-16 1.593e-17
3794.219 1.418e-16 1.515e-17
3795.294 1.847e-16 1.62e-17
3796.371 1.728e-16 1.596e-17
3797.448 1.508e-16 1.54e-17
3798.524 1.987e-16 1.602e-17
3799.601 1.746e-16 1.552e-17
3800.678 1.734e-16 1.585e-17
3801.755 1.276e-16 1.461e-17
3802.831 1.737e-16 1.563e-17
3803.908 1.975e-16 1.603e-17
3804.985 1.829e-16 1.563e-17
3806.063 1.889e-16 1.613e-17
3807.139 1.634e-16 1.542e-17
3808.216 1.669e-16 1.529e-17
3809.293 1.923e-16 1.594e-17
3810.37 1.648e-16 1.526e-17
3811.447 1.867e-16 1.61e-17
3812.524 1.779e-16 1.626e-17
3813.602 1.776e-16 1.643e-17
3814.678 1.945e-16 1.679e-17
3815.756 1.822e-16 1.698e-17
3816.833 1.87e-16 1.689e-17
3817.91 1.664e-16 1.603e-17
3818.987 1.98e-16 1.662e-17
3820.065 1.728e-16 1.603e-17
3821.142 2.044e-16 1.688e-17
3822.219 1.887e-16 1.668e-17
3823.297 2.246e-16 1.73e-17
3824.375 1.83e-16 1.634e-17
3825.451 1.844e-16 1.638e-17
3826.529 1.562e-16 1.539e-17
3827.607 1.729e-16 1.642e-17
3828.685 1.97e-16 1.768e-17
3829.762 2.093e-16 1.825e-17
3830.84 2.013e-16 1.86e-17
3831.918 1.654e-16 1.796e-17
3832.996 1.558e-16 1.761e-17
3834.073 1.748e-16 1.756e-17
3835.151 1.796e-16 1.719e-17
3836.229 2.126e-16 1.792e-17
3837.306 1.998e-16 1.74e-17
3838.384 1.611e-16 1.644e-17
3839.462 1.842e-16 1.666e-17
3840.54 1.83e-16 1.661e-17
3841.618 1.766e-16 1.637e-17
3842.696 1.751e-16 1.611e-17
3843.774 1.502e-16 1.58e-17
3844.852 1.962e-16 1.66e-17
3845.93 1.727e-16 1.638e-17
3847.008 1.992e-16 1.675e-17
3848.087 2.095e-16 1.646e-17
3849.164 1.781e-16 1.576e-17
3850.243 1.879e-16 1.574e-17
3851.321 1.581e-16 1.547e-17
3852.399 2.055e-16 1.625e-17
3853.478 1.827e-16 1.553e-17
3854.556 1.855e-16 1.541e-17
3855.635 1.917e-16 1.533e-17
3856.713 2.061e-16 1.567e-17
3857.791 1.698e-16 1.464e-17
3858.87 1.875e-16 1.482e-17
3859.948 1.84e-16 1.47e-17
3861.027 1.712e-16 1.42e-17
3862.106 1.646e-16 1.45e-17
3863.184 1.698e-16 1.443e-17
3864.262 1.977e-16 1.469e-17
3865.341 1.587e-16 1.399e-17
3866.42 1.918e-16 1.429e-17
3867.499 1.673e-16 1.392e-17
3868.577 1.622e-16 1.362e-17
3869.656 1.75e-16 1.372e-17
3870.736 1.649e-16 1.324e-17
3871.814 1.676e-16 1.313e-17
3872.893 1.845e-16 1.343e-17
3873.972 1.658e-16 1.334e-17
3875.051 1.507e-16 1.305e-17
3876.129 1.629e-16 1.323e-17
3877.209 1.752e-16 1.328e-17
3878.288 1.824e-16 1.343e-17
3879.366 1.501e-16 1.255e-17
3880.446 1.799e-16 1.299e-17
3881.525 1.595e-16 1.273e-17
3882.605 1.813e-16 1.314e-17
3883.683 1.664e-16 1.27e-17
3884.763 1.645e-16 1.277e-17
3885.842 1.716e-16 1.259e-17
3886.921 1.689e-16 1.268e-17
3888.0 1.515e-16 1.223e-17
3889.08 1.546e-16 1.213e-17
3890.16 1.569e-16 1.239e-17
3891.238 1.568e-16 1.253e-17
3892.318 1.744e-16 1.285e-17
3893.398 1.773e-16 1.298e-17
3894.478 1.784e-16 1.298e-17
3895.556 1.505e-16 1.244e-17
3896.636 1.394e-16 1.237e-17
3897.716 1.795e-16 1.315e-17
3898.795 1.625e-16 1.298e-17
3899.875 1.549e-16 1.275e-17
3900.955 1.756e-16 1.321e-17
3902.035 1.374e-16 1.25e-17
3903.114 1.904e-16 1.377e-17
3904.194 1.493e-16 1.322e-17
3905.274 1.682e-16 1.414e-17
3906.353 1.556e-16 1.427e-17
3907.433 1.543e-16 1.448e-17
3908.513 1.569e-16 1.476e-17
3909.593 1.689e-16 1.493e-17
3910.673 1.374e-16 1.423e-17
3911.753 1.295e-16 1.407e-17
3912.833 1.551e-16 1.458e-17
3913.912 1.843e-16 1.489e-17
3914.993 1.5e-16 1.409e-17
3916.073 1.625e-16 1.389e-17
3917.154 1.683e-16 1.36e-17
3918.233 1.541e-16 1.321e-17
3919.313 1.497e-16 1.314e-17
3920.394 1.44e-16 1.271e-17
3921.473 1.556e-16 1.279e-17
3922.554 1.521e-16 1.254e-17
3923.635 1.519e-16 1.285e-17
3924.715 1.495e-16 1.256e-17
3925.795 1.539e-16 1.274e-17
3926.875 1.629e-16 1.282e-17
3927.956 1.436e-16 1.248e-17
3929.036 1.613e-16 1.278e-17
3930.117 1.244e-16 1.193e-17
3931.197 1.349e-16 1.229e-17
3932.278 1.248e-16 1.213e-17
3933.358 1.423e-16 1.29e-17
3934.439 1.195e-16 1.207e-17
3935.52 1.223e-16 1.209e-17
3936.601 1.373e-16 1.234e-17
3937.68 1.435e-16 1.246e-17
3938.761 1.134e-16 1.204e-17
3939.842 1.493e-16 1.325e-17
3940.922 1.361e-16 1.307e-17
3942.003 1.179e-16 1.302e-17
3943.085 1.364e-16 1.337e-17
3944.166 1.145e-16 1.322e-17
3945.246 1.344e-16 1.348e-17
3946.327 1.261e-16 1.298e-17
3947.408 1.655e-16 1.371e-17
3948.488 1.457e-16 1.304e-17
3949.57 1.412e-16 1.305e-17
3950.651 1.138e-16 1.237e-17
3951.732 1.422e-16 1.263e-17
3952.812 1.225e-16 1.24e-17
3953.894 1.393e-16 1.241e-17
3954.975 1.398e-16 1.256e-17
3956.056 1.455e-16 1.256e-17
3957.137 1.386e-16 1.235e-17
3958.218 1.284e-16 1.195e-17
3959.3 1.29e-16 1.205e-17
3960.38 1.655e-16 1.284e-17
3961.462 1.476e-16 1.262e-17
3962.544 1.459e-16 1.252e-17
3963.624 1.415e-16 1.22e-17
3964.706 1.392e-16 1.194e-17
3965.787 1.244e-16 1.144e-17
3966.869 1.232e-16 1.137e-17
3967.95 1.555e-16 1.212e-17
3969.032 1.59e-16 1.219e-17
3970.113 1.285e-16 1.162e-17
3971.194 1.49e-16 1.203e-17
3972.276 1.391e-16 1.188e-17
3973.358 1.551e-16 1.242e-17
3974.44 1.464e-16 1.232e-17
3975.521 1.607e-16 1.29e-17
3976.602 1.592e-16 1.297e-17
3977.684 1.641e-16 1.31e-17
3978.766 1.527e-16 1.282e-17
3979.847 1.565e-16 1.269e-17
3980.929 1.773e-16 1.337e-17
3982.011 1.599e-16 1.27e-17
3983.092 1.64e-16 1.308e-17
3984.175 1.319e-16 1.213e-17
3985.257 1.274e-16 1.203e-17
3986.339 1.555e-16 1.251e-17
3987.42 1.543e-16 1.256e-17
3988.502 1.558e-16 1.263e-17
3989.584 1.716e-16 1.303e-17
3990.666 1.53e-16 1.258e-17
3991.748 1.391e-16 1.231e-17
3992.83 1.53e-16 1.271e-17
3993.913 1.571e-16 1.272e-17
3994.994 1.691e-16 1.305e-17
3996.076 1.727e-16 1.297e-17
3997.159 1.373e-16 1.249e-17
3998.24 1.541e-16 1.273e-17
3999.323 1.678e-16 1.329e-17
4000.405 1.506e-16 1.269e-17
4001.488 1.584e-16 1.292e-17
4002.569 1.598e-16 1.292e-17
4003.652 1.609e-16 1.284e-17
4004.734 1.381e-16 1.227e-17
4005.816 1.626e-16 1.297e-17
4006.899 1.514e-16 1.305e-17
4007.981 1.618e-16 1.327e-17
4009.064 1.543e-16 1.314e-17
4010.146 1.599e-16 1.379e-17
4011.229 1.633e-16 1.371e-17
4012.311 1.317e-16 1.269e-17
4013.393 1.552e-16 1.336e-17
4014.476 1.434e-16 1.295e-17
4015.559 1.676e-16 1.326e-17
4016.642 1.346e-16 1.232e-17
4017.723 1.486e-16 1.276e-17
4018.806 1.463e-16 1.292e-17
4019.889 1.645e-16 1.359e-17
4020.971 1.48e-16 1.337e-17
4022.054 1.762e-16 1.403e-17
4023.137 1.824e-16 1.398e-17
4024.22 1.551e-16 1.342e-17
4025.302 1.53e-16 1.335e-17
4026.386 1.775e-16 1.33e-17
4027.469 1.504e-16 1.25e-17
4028.552 1.455e-16 1.254e-17
4029.634 1.547e-16 1.261e-17
4030.717 1.322e-16 1.219e-17
4031.8 1.515e-16 1.253e-17
4032.883 1.861e-16 1.309e-17
4033.966 1.498e-16 1.235e-17
4035.049 1.55e-16 1.236e-17
4036.132 1.401e-16 1.219e-17
4037.215 1.659e-16 1.269e-17
4038.298 1.484e-16 1.229e-17
4039.381 1.717e-16 1.293e-17
4040.464 1.462e-16 1.247e-17
4041.547 1.517e-16 1.279e-17
4042.631 1.817e-16 1.343e-17
4043.714 1.634e-16 1.362e-17
4044.797 1.185e-16 1.458e-17
4045.88 1.374e-16 1.763e-17
4046.964 1.593e-16 1.958e-17
4048.046 1.278e-16 1.883e-17
4049.13 1.56e-16 1.724e-17
4050.214 1.721e-16 1.505e-17
4051.297 1.486e-16 1.334e-17
4052.38 1.65e-16 1.314e-17
4053.464 1.605e-16 1.29e-17
4054.547 1.575e-16 1.3e-17
4055.63 1.226e-16 1.213e-17
4056.714 1.552e-16 1.25e-17
4057.798 1.639e-16 1.267e-17
4058.881 1.597e-16 1.267e-17
4059.964 1.639e-16 1.284e-17
4061.048 1.459e-16 1.257e-17
4062.132 1.468e-16 1.271e-17
4063.215 1.609e-16 1.291e-17
4064.299 1.488e-16 1.308e-17
4065.383 1.475e-16 1.31e-17
4066.467 1.65e-16 1.322e-17
4067.55 1.428e-16 1.257e-17
4068.634 1.78e-16 1.343e-17
4069.718 1.483e-16 1.265e-17
4070.801 1.57e-16 1.296e-17
4071.885 1.528e-16 1.253e-17
4072.969 1.593e-16 1.263e-17
4074.053 1.553e-16 1.238e-17
4075.136 1.778e-16 1.298e-17
4076.22 1.382e-16 1.277e-17
4077.304 1.541e-16 1.353e-17
4078.388 1.644e-16 1.398e-17
4079.472 1.524e-16 1.354e-17
4080.556 1.646e-16 1.348e-17
4081.64 1.736e-16 1.328e-17
4082.724 1.805e-16 1.323e-17
4083.808 1.629e-16 1.276e-17
4084.892 1.549e-16 1.262e-17
4085.976 1.379e-16 1.218e-17
4087.06 1.415e-16 1.228e-17
4088.145 1.578e-16 1.229e-17
4089.229 1.309e-16 1.184e-17
4090.312 1.767e-16 1.247e-17
4091.397 1.483e-16 1.195e-17
4092.481 1.466e-16 1.188e-17
4093.566 1.317e-16 1.145e-17
4094.649 1.392e-16 1.166e-17
4095.734 1.561e-16 1.183e-17
4096.819 1.361e-16 1.141e-17
4097.902 1.666e-16 1.22e-17
4098.987 1.673e-16 1.203e-17
4100.072 1.504e-16 1.191e-17
4101.156 1.488e-16 1.176e-17
4102.24 1.646e-16 1.182e-17
4103.325 1.812e-16 1.218e-17
4104.409 1.46e-16 1.129e-17
4105.493 1.517e-16 1.143e-17
4106.578 1.665e-16 1.197e-17
4107.663 1.663e-16 1.19e-17
4108.747 1.664e-16 1.193e-17
4109.831 1.854e-16 1.229e-17
4110.916 1.759e-16 1.22e-17
4112.001 1.919e-16 1.233e-17
4113.085 1.481e-16 1.143e-17
4114.17 1.802e-16 1.224e-17
4115.255 1.449e-16 1.151e-17
4116.34 1.46e-16 1.166e-17
4117.424 1.717e-16 1.209e-17
4118.509 1.607e-16 1.173e-17
4119.594 1.688e-16 1.178e-17
4120.678 1.743e-16 1.197e-17
4121.763 1.646e-16 1.192e-17
4122.848 1.636e-16 1.196e-17
4123.933 1.477e-16 1.191e-17
4125.017 1.868e-16 1.265e-17
4126.102 1.6e-16 1.207e-17
4127.188 1.627e-16 1.23e-17
4128.272 1.527e-16 1.206e-17
4129.357 1.874e-16 1.261e-17
4130.442 1.713e-16 1.221e-17
4131.527 2.045e-16 1.277e-17
4132.612 1.433e-16 1.184e-17
4133.697 1.547e-16 1.232e-17
4134.782 1.725e-16 1.248e-17
4135.867 1.633e-16 1.242e-17
4136.952 1.825e-16 1.268e-17
4138.037 1.632e-16 1.23e-17
4139.123 1.748e-16 1.249e-17
4140.207 1.54e-16 1.199e-17
4141.293 1.731e-16 1.232e-17
4142.378 1.862e-16 1.227e-17
4143.462 1.628e-16 1.171e-17
4144.548 1.892e-16 1.225e-17
4145.633 1.611e-16 1.197e-17
4146.719 1.616e-16 1.19e-17
4147.804 1.575e-16 1.172e-17
4148.889 1.586e-16 1.17e-17
4149.975 1.528e-16 1.142e-17
4151.059 1.798e-16 1.197e-17
4152.145 1.668e-16 1.185e-17
4153.231 1.749e-16 1.218e-17
4154.316 1.751e-16 1.238e-17
4155.401 1.815e-16 1.263e-17
4156.487 1.888e-16 1.288e-17
4157.572 1.74e-16 1.247e-17
4158.657 1.84e-16 1.262e-17
4159.743 1.817e-16 1.269e-17
4160.829 1.57e-16 1.22e-17
4161.914 1.821e-16 1.283e-17
4162.999 1.644e-16 1.26e-17
4164.085 1.688e-16 1.291e-17
4165.171 1.854e-16 1.341e-17
4166.256 1.9e-16 1.364e-17
4167.342 1.843e-16 1.369e-17
4168.428 2.024e-16 1.386e-17
4169.513 1.749e-16 1.353e-17
4170.598 1.685e-16 1.302e-17
4171.684 1.808e-16 1.324e-17
4172.77 1.85e-16 1.335e-17
4173.855 1.938e-16 1.337e-17
4174.941 1.861e-16 1.323e-17
4176.027 1.673e-16 1.279e-17
4177.113 1.512e-16 1.251e-17
4178.199 1.824e-16 1.31e-17
4179.285 1.725e-16 1.291e-17
4180.371 1.793e-16 1.299e-17
4181.456 1.852e-16 1.299e-17
4182.542 1.826e-16 1.291e-17
4183.628 1.772e-16 1.268e-17
4184.714 1.69e-16 1.248e-17
4185.8 1.754e-16 1.26e-17
4186.886 1.943e-16 1.308e-17
4187.972 1.775e-16 1.248e-17
4189.057 1.764e-16 1.256e-17
4190.144 2.065e-16 1.315e-17
4191.23 1.926e-16 1.304e-17
4192.316 1.577e-16 1.232e-17
4193.401 1.967e-16 1.315e-17
4194.488 1.712e-16 1.263e-17
4195.574 1.518e-16 1.227e-17
4196.66 1.985e-16 1.311e-17
4197.746 1.861e-16 1.274e-17
4198.832 1.793e-16 1.253e-17
4199.919 2.012e-16 1.292e-17
4201.004 1.744e-16 1.251e-17
4202.091 1.93e-16 1.286e-17
4203.177 1.66e-16 1.238e-17
4204.263 1.666e-16 1.227e-17
4205.349 1.785e-16 1.235e-17
4206.436 1.998e-16 1.312e-17
4207.522 1.881e-16 1.304e-17
4208.608 1.581e-16 1.261e-17
4209.694 1.889e-16 1.316e-17
4210.781 1.704e-16 1.257e-17
4211.867 1.716e-16 1.256e-17
4212.953 1.834e-16 1.271e-17
4214.04 1.674e-16 1.229e-17
4215.127 1.768e-16 1.247e-17
4216.212 1.826e-16 1.285e-17
4217.299 1.779e-16 1.255e-17
4218.386 1.906e-16 1.278e-17
4219.471 1.709e-16 1.21e-17
4220.558 1.536e-16 1.192e-17
4221.645 1.815e-16 1.243e-17
4222.732 1.832e-16 1.241e-17
4223.817 1.721e-16 1.24e-17
4224.904 1.702e-16 1.234e-17
4225.991 1.714e-16 1.24e-17
4227.077 1.858e-16 1.23e-17
4228.164 1.725e-16 1.21e-17
4229.251 1.617e-16 1.186e-17
4230.338 1.564e-16 1.191e-17
4231.423 1.784e-16 1.229e-17
4232.51 1.444e-16 1.171e-17
4233.597 1.689e-16 1.203e-17
4234.683 1.646e-16 1.192e-17
4235.77 1.725e-16 1.212e-17
4236.857 1.819e-16 1.232e-17
4237.944 1.822e-16 1.241e-17
4239.03 1.577e-16 1.192e-17
4240.117 1.688e-16 1.183e-17
4241.204 1.383e-16 1.144e-17
4242.29 1.498e-16 1.147e-17
4243.378 1.546e-16 1.141e-17
4244.465 1.67e-16 1.178e-17
4245.552 1.73e-16 1.236e-17
4246.638 1.5e-16 1.228e-17
4247.725 1.52e-16 1.265e-17
4248.812 1.514e-16 1.235e-17
4249.898 1.855e-16 1.254e-17
4250.986 1.601e-16 1.191e-17
4252.073 1.715e-16 1.212e-17
4253.16 1.583e-16 1.188e-17
4254.246 1.57e-16 1.176e-17
4255.333 1.717e-16 1.179e-17
4256.421 1.641e-16 1.184e-17
4257.507 1.659e-16 1.189e-17
4258.594 1.685e-16 1.187e-17
4259.682 1.687e-16 1.17e-17
4260.769 1.742e-16 1.183e-17
4261.855 1.539e-16 1.138e-17
4262.943 1.468e-16 1.135e-17
4264.03 1.607e-16 1.143e-17
4265.116 1.581e-16 1.136e-17
4266.204 1.525e-16 1.147e-17
4267.291 1.484e-16 1.138e-17
4268.379 1.581e-16 1.15e-17
4269.465 1.539e-16 1.148e-17
4270.553 1.506e-16 1.138e-17
4271.64 1.609e-16 1.148e-17
4272.726 1.539e-16 1.145e-17
4273.814 1.607e-16 1.15e-17
4274.901 1.493e-16 1.135e-17
4275.989 1.401e-16 1.116e-17
4277.076 1.531e-16 1.151e-17
4278.163 1.397e-16 1.124e-17
4279.251 1.507e-16 1.14e-17
4280.337 1.369e-16 1.114e-17
4281.425 1.759e-16 1.164e-17
4282.512 1.458e-16 1.122e-17
4283.6 1.46e-16 1.115e-17
4284.687 1.43e-16 1.122e-17
4285.774 1.736e-16 1.159e-17
4286.862 1.32e-16 1.103e-17
4287.949 1.41e-16 1.117e-17
4289.036 1.605e-16 1.15e-17
4290.124 1.418e-16 1.106e-17
4291.212 1.618e-16 1.139e-17
4292.299 1.717e-16 1.169e-17
4293.386 1.605e-16 1.147e-17
4294.474 1.588e-16 1.152e-17
4295.561 1.511e-16 1.144e-17
4296.649 1.422e-16 1.132e-17
4297.736 1.607e-16 1.153e-17
4298.824 1.332e-16 1.106e-17
4299.911 1.637e-16 1.154e-17
4300.999 1.292e-16 1.09e-17
4302.087 1.591e-16 1.137e-17
4303.174 1.443e-16 1.11e-17
4304.262 1.572e-16 1.132e-17
4305.349 1.454e-16 1.128e-17
4306.437 1.657e-16 1.17e-17
4307.524 1.467e-16 1.142e-17
4308.612 1.546e-16 1.167e-17
4309.7 1.472e-16 1.161e-17
4310.787 1.558e-16 1.163e-17
4311.875 1.495e-16 1.163e-17
4312.963 1.469e-16 1.185e-17
4314.051 1.542e-16 1.228e-17
4315.138 1.536e-16 1.227e-17
4316.226 1.705e-16 1.237e-17
4317.314 1.545e-16 1.218e-17
4318.401 1.512e-16 1.201e-17
4319.489 1.552e-16 1.212e-17
4320.577 1.449e-16 1.196e-17
4321.665 1.622e-16 1.212e-17
4322.752 1.689e-16 1.218e-17
4323.841 1.601e-16 1.184e-17
4324.929 1.5e-16 1.173e-17
4326.016 1.401e-16 1.171e-17
4327.104 1.515e-16 1.164e-17
4328.192 1.407e-16 1.162e-17
4329.28 1.527e-16 1.175e-17
4330.367 1.577e-16 1.167e-17
4331.456 1.525e-16 1.162e-17
4332.544 1.703e-16 1.19e-17
4333.631 1.321e-16 1.133e-17
4334.719 1.616e-16 1.186e-17
4335.807 1.28e-16 1.135e-17
4336.896 1.519e-16 1.188e-17
4337.983 1.623e-16 1.195e-17
4339.071 1.562e-16 1.193e-17
4340.16 1.632e-16 1.207e-17
4341.247 1.61e-16 1.205e-17
4342.335 1.485e-16 1.194e-17
4343.423 1.548e-16 1.2e-17
4344.512 1.527e-16 1.2e-17
4345.599 1.663e-16 1.228e-17
4346.687 1.434e-16 1.207e-17
4347.776 1.585e-16 1.246e-17
4348.863 1.583e-16 1.261e-17
4349.952 1.396e-16 1.213e-17
4351.04 1.541e-16 1.226e-17
4352.128 1.62e-16 1.213e-17
4353.216 1.583e-16 1.23e-17
4354.304 1.476e-16 1.215e-17
4355.393 1.535e-16 1.258e-17
4356.48 1.38e-16 1.513e-17
4357.569 1.692e-16 2.005e-17
4358.657 1.503e-16 2.252e-17
4359.746 1.488e-16 2.231e-17
4360.833 1.744e-16 1.945e-17
4361.922 1.268e-16 1.561e-17
4363.01 1.518e-16 1.355e-17
4364.098 1.422e-16 1.274e-17
4365.186 1.753e-16 1.294e-17
4366.275 1.847e-16 1.271e-17
4367.363 1.607e-16 1.266e-17
4368.451 1.626e-16 1.256e-17
4369.539 1.714e-16 1.263e-17
4370.628 1.569e-16 1.248e-17
4371.716 1.666e-16 1.248e-17
4372.804 1.719e-16 1.269e-17
4373.893 1.758e-16 1.29e-17
4374.981 1.638e-16 1.285e-17
4376.069 1.798e-16 1.314e-17
4377.158 1.707e-16 1.283e-17
4378.246 1.926e-16 1.315e-17
4379.334 1.708e-16 1.267e-17
4380.423 1.824e-16 1.284e-17
4381.511 1.765e-16 1.268e-17
4382.6 1.79e-16 1.266e-17
4383.688 1.767e-16 1.269e-17
4384.776 1.502e-16 1.22e-17
4385.865 1.706e-16 1.258e-17
4386.953 1.924e-16 1.285e-17
4388.042 1.714e-16 1.253e-17
4389.13 1.806e-16 1.262e-17
4390.219 1.589e-16 1.229e-17
4391.307 1.649e-16 1.243e-17
4392.396 1.679e-16 1.246e-17
4393.485 1.814e-16 1.273e-17
4394.572 1.772e-16 1.282e-17
4395.661 1.717e-16 1.277e-17
4396.75 1.755e-16 1.264e-17
4397.839 1.765e-16 1.26e-17
4398.927 1.587e-16 1.255e-17
4400.016 1.554e-16 1.277e-17
4401.104 1.722e-16 1.295e-17
4402.192 1.464e-16 1.277e-17
4403.281 1.454e-16 1.285e-17
4404.37 1.679e-16 1.311e-17
4405.459 1.595e-16 1.317e-17
4406.547 1.767e-16 1.345e-17
4407.636 1.642e-16 1.331e-17
4408.725 1.694e-16 1.339e-17
4409.813 1.607e-16 1.333e-17
4410.901 1.862e-16 1.355e-17
4411.99 1.461e-16 1.297e-17
4413.079 1.379e-16 1.293e-17
4414.167 1.424e-16 1.3e-17
4415.256 1.704e-16 1.347e-17
4416.345 1.526e-16 1.327e-17
4417.433 1.528e-16 1.308e-17
4418.522 1.806e-16 1.35e-17
4419.611 1.508e-16 1.306e-17
4420.7 1.419e-16 1.311e-17
4421.788 1.51e-16 1.334e-17
4422.877 1.718e-16 1.334e-17
4423.966 1.628e-16 1.312e-17
4425.054 1.586e-16 1.323e-17
4426.143 1.9e-16 1.368e-17
4427.233 1.589e-16 1.316e-17
4428.322 1.513e-16 1.304e-17
4429.41 1.432e-16 1.274e-17
4430.499 1.734e-16 1.333e-17
4431.588 1.524e-16 1.294e-17
4432.676 1.478e-16 1.295e-17
4433.765 1.428e-16 1.282e-17
4434.854 1.691e-16 1.297e-17
4435.943 1.422e-16 1.28e-17
4437.031 1.746e-16 1.317e-17
4438.121 1.607e-16 1.306e-17
4439.21 1.752e-16 1.334e-17
4440.298 1.614e-16 1.309e-17
4441.387 1.56e-16 1.295e-17
4442.476 1.888e-16 1.336e-17
4443.565 1.471e-16 1.274e-17
4444.654 1.732e-16 1.313e-17
4445.743 1.463e-16 1.282e-17
4446.832 1.597e-16 1.291e-17
4447.92 1.656e-16 1.308e-17
4449.009 1.649e-16 1.307e-17
4450.099 1.445e-16 1.265e-17
4451.188 1.498e-16 1.262e-17
4452.276 1.574e-16 1.28e-17
4453.365 1.436e-16 1.269e-17
4454.454 1.752e-16 1.299e-17
4455.543 1.527e-16 1.288e-17
4456.632 1.562e-16 1.272e-17
4457.721 1.617e-16 1.303e-17
4458.809 1.708e-16 1.293e-17
4459.899 1.838e-16 1.332e-17
4460.988 1.864e-16 1.326e-17
4462.077 1.5e-16 1.276e-17
4463.166 1.742e-16 1.326e-17
4464.255 1.708e-16 1.316e-17
4465.344 1.625e-16 1.301e-17
4466.433 1.648e-16 1.298e-17
4467.522 1.555e-16 1.289e-17
4468.611 1.492e-16 1.281e-17
4469.701 1.685e-16 1.304e-17
4470.789 1.627e-16 1.3e-17
4471.878 1.529e-16 1.278e-17
4472.968 1.536e-16 1.28e-17
4474.056 1.607e-16 1.301e-17
4475.145 1.697e-16 1.321e-17
4476.235 1.564e-16 1.3e-17
4477.324 1.698e-16 1.308e-17
4478.412 1.689e-16 1.3e-17
4479.502 1.9e-16 1.327e-17
4480.591 1.533e-16 1.276e-17
4481.68 1.817e-16 1.321e-17
4482.769 1.739e-16 1.308e-17
4483.858 1.604e-16 1.295e-17
4484.948 1.587e-16 1.307e-17
4486.036 1.47e-16 1.3e-17
4487.126 1.545e-16 1.295e-17
4488.215 1.722e-16 1.323e-17
4489.304 1.62e-16 1.297e-17
4490.393 1.401e-16 1.266e-17
4491.482 1.638e-16 1.298e-17
4492.572 1.611e-16 1.315e-17
4493.66 1.857e-16 1.33e-17
4494.75 1.928e-16 1.346e-17
4495.839 1.674e-16 1.312e-17
4496.928 1.816e-16 1.325e-17
4498.017 1.749e-16 1.329e-17
4499.107 1.473e-16 1.277e-17
4500.196 1.76e-16 1.32e-17
4501.285 1.45e-16 1.275e-17
4502.374 1.707e-16 1.287e-17
4503.464 1.515e-16 1.271e-17
4504.552 1.607e-16 1.272e-17
4505.642 1.45e-16 1.258e-17
4506.731 1.806e-16 1.317e-17
4507.821 1.779e-16 1.319e-17
4508.909 1.515e-16 1.257e-17
4509.999 1.733e-16 1.297e-17
4511.088 1.721e-16 1.307e-17
4512.177 1.831e-16 1.331e-17
4513.266 1.731e-16 1.287e-17
4514.356 1.502e-16 1.248e-17
4515.446 1.496e-16 1.266e-17
4516.534 1.476e-16 1.247e-17
4517.624 1.594e-16 1.289e-17
4518.713 1.694e-16 1.275e-17
4519.802 1.455e-16 1.249e-17
4520.891 1.475e-16 1.265e-17
4521.981 1.694e-16 1.294e-17
4523.071 1.792e-16 1.304e-17
4524.159 1.874e-16 1.309e-17
4525.249 1.694e-16 1.281e-17
4526.338 1.956e-16 1.311e-17
4527.427 1.904e-16 1.309e-17
4528.516 1.804e-16 1.313e-17
4529.606 1.365e-16 1.25e-17
4530.696 1.737e-16 1.312e-17
4531.784 1.73e-16 1.301e-17
4532.874 1.827e-16 1.321e-17
4533.964 1.851e-16 1.328e-17
4535.052 1.796e-16 1.309e-17
4536.142 1.718e-16 1.287e-17
4537.231 1.576e-16 1.276e-17
4538.321 1.658e-16 1.275e-17
4539.41 1.509e-16 1.262e-17
4540.499 1.685e-16 1.27e-17
4541.589 1.526e-16 1.269e-17
4542.678 1.737e-16 1.299e-17
4543.767 1.806e-16 1.303e-17
4544.857 1.586e-16 1.27e-17
4545.946 1.582e-16 1.27e-17
4547.035 1.769e-16 1.293e-17
4548.125 1.576e-16 1.267e-17
4549.215 1.592e-16 1.256e-17
4550.303 1.682e-16 1.255e-17
4551.393 1.696e-16 1.26e-17
4552.483 1.5e-16 1.234e-17
4553.571 1.848e-16 1.284e-17
4554.661 1.886e-16 1.286e-17
4555.751 1.689e-16 1.251e-17
4556.84 1.707e-16 1.246e-17
4557.929 1.772e-16 1.27e-17
4559.019 1.847e-16 1.267e-17
4560.108 1.843e-16 1.257e-17
4561.197 1.734e-16 1.243e-17
4562.287 1.721e-16 1.226e-17
4563.376 1.686e-16 1.222e-17
4564.466 1.521e-16 1.195e-17
4565.555 1.731e-16 1.232e-17
4566.645 1.563e-16 1.211e-17
4567.734 1.502e-16 1.19e-17
4568.823 1.794e-16 1.256e-17
4569.913 1.589e-16 1.212e-17
4571.002 1.556e-16 1.201e-17
4572.092 1.602e-16 1.195e-17
4573.181 1.726e-16 1.198e-17
4574.271 1.681e-16 1.218e-17
4575.36 1.448e-16 1.178e-17
4576.449 1.643e-16 1.192e-17
4577.539 1.643e-16 1.237e-17
4578.628 1.329e-16 1.175e-17
4579.718 1.795e-16 1.241e-17
4580.807 1.485e-16 1.2e-17
4581.897 1.706e-16 1.219e-17
4582.986 1.651e-16 1.231e-17
4584.075 1.565e-16 1.197e-17
4585.165 1.559e-16 1.196e-17
4586.255 1.668e-16 1.217e-17
4587.344 1.894e-16 1.237e-17
4588.433 1.577e-16 1.206e-17
4589.523 1.666e-16 1.205e-17
4590.612 1.586e-16 1.188e-17
4591.701 1.467e-16 1.17e-17
4592.791 1.63e-16 1.193e-17
4593.881 1.802e-16 1.211e-17
4594.97 1.671e-16 1.197e-17
4596.059 1.751e-16 1.205e-17
4597.149 2.063e-16 1.266e-17
4598.239 1.798e-16 1.222e-17
4599.327 1.595e-16 1.176e-17
4600.417 1.683e-16 1.193e-17
4601.507 1.68e-16 1.182e-17
4602.597 1.663e-16 1.187e-17
4603.685 1.798e-16 1.215e-17
4604.775 1.758e-16 1.197e-17
4605.865 1.924e-16 1.233e-17
4606.954 1.664e-16 1.182e-17
4608.043 1.765e-16 1.214e-17
4609.133 1.691e-16 1.204e-17
4610.222 1.894e-16 1.235e-17
4611.312 1.716e-16 1.196e-17
4612.401 2.093e-16 1.258e-17
4613.491 1.629e-16 1.183e-17
4614.58 2.034e-16 1.238e-17
4615.67 1.88e-16 1.23e-17
4616.76 1.852e-16 1.22e-17
4617.848 1.74e-16 1.202e-17
4618.938 1.967e-16 1.229e-17
4620.028 1.893e-16 1.205e-17
4621.118 1.892e-16 1.203e-17
4622.206 1.799e-16 1.2e-17
4623.296 1.765e-16 1.205e-17
4624.386 1.75e-16 1.207e-17
4625.475 1.835e-16 1.22e-17
4626.564 1.712e-16 1.212e-17
4627.654 2.147e-16 1.259e-17
4628.744 2.064e-16 1.255e-17
4629.833 1.977e-16 1.24e-17
4630.922 1.824e-16 1.201e-17
4632.012 1.975e-16 1.242e-17
4633.101 1.843e-16 1.203e-17
4634.191 1.959e-16 1.232e-17
4635.28 1.659e-16 1.175e-17
4636.37 1.889e-16 1.214e-17
4637.459 1.563e-16 1.164e-17
4638.549 1.79e-16 1.194e-17
4639.638 1.987e-16 1.219e-17
4640.727 1.769e-16 1.181e-17
4641.817 2.156e-16 1.23e-17
4642.907 1.872e-16 1.206e-17
4643.996 1.819e-16 1.197e-17
4645.085 2.053e-16 1.227e-17
4646.175 1.941e-16 1.205e-17
4647.265 1.628e-16 1.158e-17
4648.353 2.137e-16 1.229e-17
4649.443 1.948e-16 1.212e-17
4650.533 2.009e-16 1.209e-17
4651.623 1.77e-16 1.19e-17
4652.711 2.191e-16 1.238e-17
4653.801 1.996e-16 1.214e-17
4654.891 1.814e-16 1.185e-17
4655.979 1.941e-16 1.214e-17
4657.069 1.807e-16 1.194e-17
4658.159 1.784e-16 1.207e-17
4659.249 1.853e-16 1.215e-17
4660.337 1.73e-16 1.213e-17
4661.427 1.754e-16 1.21e-17
4662.517 1.743e-16 1.201e-17
4663.606 2.028e-16 1.244e-17
4664.695 1.779e-16 1.206e-17
4665.785 2.003e-16 1.242e-17
4666.875 1.548e-16 1.167e-17
4667.963 1.741e-16 1.198e-17
4669.053 1.703e-16 1.21e-17
4670.143 1.915e-16 1.244e-17
4671.232 2.055e-16 1.26e-17
4672.321 1.841e-16 1.223e-17
4673.411 1.645e-16 1.191e-17
4674.5 2.211e-16 1.283e-17
4675.589 2.099e-16 1.25e-17
4676.679 1.86e-16 1.225e-17
4677.769 1.629e-16 1.169e-17
4678.857 1.783e-16 1.196e-17
4679.947 1.751e-16 1.191e-17
4681.037 1.738e-16 1.196e-17
4682.125 1.951e-16 1.213e-17
4683.215 1.928e-16 1.228e-17
4684.305 1.869e-16 1.202e-17
4685.394 1.863e-16 1.203e-17
4686.483 2.03e-16 1.219e-17
4687.573 1.658e-16 1.148e-17
4688.662 1.734e-16 1.173e-17
4689.751 1.712e-16 1.163e-17
4690.841 1.797e-16 1.179e-17
4691.93 2.045e-16 1.217e-17
4693.02 2.183e-16 1.24e-17
4694.109 1.914e-16 1.195e-17
4695.198 1.8e-16 1.176e-17
4696.288 1.87e-16 1.202e-17
4697.377 1.75e-16 1.162e-17
4698.466 1.973e-16 1.194e-17
4699.556 2.03e-16 1.208e-17
4700.646 1.819e-16 1.175e-17
4701.734 1.716e-16 1.156e-17
4702.824 2.003e-16 1.21e-17
4703.913 2.042e-16 1.21e-17
4705.002 1.895e-16 1.189e-17
4706.092 1.829e-16 1.199e-17
4707.181 1.883e-16 1.205e-17
4708.271 1.994e-16 1.225e-17
4709.36 1.623e-16 1.188e-17
4710.449 1.932e-16 1.216e-17
4711.539 1.658e-16 1.175e-17
4712.627 2.039e-16 1.217e-17
4713.717 1.839e-16 1.213e-17
4714.807 1.77e-16 1.183e-17
4715.896 2.056e-16 1.23e-17
4716.985 1.701e-16 1.175e-17
4718.074 1.813e-16 1.192e-17
4719.164 1.894e-16 1.205e-17
4720.252 1.964e-16 1.212e-17
4721.342 1.769e-16 1.173e-17
4722.431 1.823e-16 1.186e-17
4723.521 2.066e-16 1.218e-17
4724.61 2.029e-16 1.223e-17
4725.699 1.791e-16 1.186e-17
4726.789 1.799e-16 1.213e-17
4727.877 1.914e-16 1.228e-17
4728.967 1.849e-16 1.204e-17
4730.056 1.917e-16 1.232e-17
4731.145 1.923e-16 1.219e-17
4732.234 1.984e-16 1.233e-17
4733.324 1.636e-16 1.16e-17
4734.413 1.814e-16 1.205e-17
4735.502 1.721e-16 1.206e-17
4736.591 1.693e-16 1.183e-17
4737.681 1.699e-16 1.209e-17
4738.769 1.866e-16 1.236e-17
4739.859 1.813e-16 1.238e-17
4740.948 1.622e-16 1.212e-17
4742.038 1.664e-16 1.213e-17
4743.126 2.009e-16 1.277e-17
4744.216 1.796e-16 1.237e-17
4745.305 1.721e-16 1.221e-17
4746.394 1.46e-16 1.16e-17
4747.483 1.699e-16 1.167e-17
4748.572 1.712e-16 1.154e-17
4749.662 1.733e-16 1.155e-17
4750.75 1.745e-16 1.166e-17
4751.84 1.89e-16 1.198e-17
4752.929 1.558e-16 1.157e-17
4754.018 1.712e-16 1.181e-17
4755.107 1.788e-16 1.171e-17
4756.196 1.731e-16 1.167e-17
4757.286 1.625e-16 1.136e-17
4758.374 1.46e-16 1.109e-17
4759.464 1.787e-16 1.16e-17
4760.553 1.473e-16 1.102e-17
4761.641 1.726e-16 1.149e-17
4762.731 1.565e-16 1.122e-17
4763.82 1.684e-16 1.137e-17
4764.909 1.649e-16 1.123e-17
4765.998 1.796e-16 1.139e-17
4767.087 1.623e-16 1.126e-17
4768.176 1.657e-16 1.123e-17
4769.265 1.68e-16 1.127e-17
4770.354 1.915e-16 1.166e-17
4771.443 1.695e-16 1.125e-17
4772.533 1.663e-16 1.126e-17
4773.621 1.475e-16 1.085e-17
4774.71 1.685e-16 1.129e-17
4775.8 1.823e-16 1.164e-17
4776.888 1.814e-16 1.152e-17
4777.977 1.89e-16 1.177e-17
4779.066 1.677e-16 1.149e-17
4780.156 1.708e-16 1.144e-17
4781.244 1.951e-16 1.194e-17
4782.333 1.693e-16 1.132e-17
4783.423 1.693e-16 1.142e-17
4784.511 1.868e-16 1.172e-17
4785.6 1.787e-16 1.156e-17
4786.689 1.858e-16 1.165e-17
4787.777 1.975e-16 1.187e-17
4788.867 1.876e-16 1.167e-17
4789.956 1.794e-16 1.153e-17
4791.045 1.607e-16 1.135e-17
4792.133 1.83e-16 1.18e-17
4793.222 1.88e-16 1.187e-17
4794.312 1.825e-16 1.16e-17
4795.4 1.754e-16 1.137e-17
4796.489 1.653e-16 1.131e-17
4797.578 1.709e-16 1.149e-17
4798.667 1.801e-16 1.16e-17
4799.755 1.887e-16 1.158e-17
4800.845 1.71e-16 1.132e-17
4801.934 1.58e-16 1.107e-17
4803.022 1.786e-16 1.159e-17
4804.111 1.878e-16 1.176e-17
4805.2 1.709e-16 1.131e-17
4806.289 1.659e-16 1.134e-17
4807.377 1.86e-16 1.172e-17
4808.466 1.905e-16 1.173e-17
4809.555 1.703e-16 1.142e-17
4810.643 1.65e-16 1.137e-17
4811.732 1.824e-16 1.167e-17
4812.822 1.741e-16 1.151e-17
4813.911 1.928e-16 1.194e-17
4814.999 1.762e-16 1.165e-17
4816.088 1.963e-16 1.214e-17
4817.177 1.756e-16 1.177e-17
4818.265 1.777e-16 1.212e-17
4819.354 1.831e-16 1.202e-17
4820.443 1.719e-16 1.206e-17
4821.532 1.913e-16 1.238e-17
4822.62 1.931e-16 1.229e-17
4823.709 1.748e-16 1.208e-17
4824.798 1.804e-16 1.211e-17
4825.885 1.776e-16 1.21e-17
4826.974 1.867e-16 1.231e-17
4828.063 1.752e-16 1.197e-17
4829.152 1.59e-16 1.188e-17
4830.24 1.94e-16 1.223e-17
4831.329 2.087e-16 1.268e-17
4832.418 1.848e-16 1.225e-17
4833.506 1.932e-16 1.248e-17
4834.595 1.804e-16 1.218e-17
4835.684 1.693e-16 1.201e-17
4836.772 1.895e-16 1.237e-17
4837.86 1.831e-16 1.224e-17
4838.949 1.815e-16 1.239e-17
4840.038 2.076e-16 1.282e-17
4841.126 2.072e-16 1.273e-17
4842.215 1.847e-16 1.251e-17
4843.304 1.947e-16 1.252e-17
4844.391 1.864e-16 1.225e-17
4845.48 1.953e-16 1.225e-17
4846.569 1.854e-16 1.212e-17
4847.658 1.605e-16 1.192e-17
4848.745 1.903e-16 1.236e-17
4849.834 1.994e-16 1.24e-17
4850.923 1.769e-16 1.188e-17
4852.011 1.742e-16 1.184e-17
4853.099 1.832e-16 1.212e-17
4854.188 1.922e-16 1.237e-17
4855.277 1.826e-16 1.201e-17
4856.364 1.725e-16 1.173e-17
4857.453 1.84e-16 1.18e-17
4858.542 1.993e-16 1.218e-17
4859.63 1.849e-16 1.209e-17
4860.718 1.634e-16 1.185e-17
4861.807 1.85e-16 1.253e-17
4862.895 1.75e-16 1.231e-17
4863.983 1.733e-16 1.218e-17
4865.072 1.559e-16 1.166e-17
4866.16 1.74e-16 1.193e-17
4867.248 2.009e-16 1.232e-17
4868.336 1.865e-16 1.225e-17
4869.425 1.667e-16 1.187e-17
4870.514 1.899e-16 1.232e-17
4871.601 1.548e-16 1.154e-17
4872.69 1.921e-16 1.217e-17
4873.778 1.838e-16 1.197e-17
4874.866 1.612e-16 1.165e-17
4875.954 1.73e-16 1.18e-17
4877.043 1.67e-16 1.169e-17
4878.131 1.678e-16 1.188e-17
4879.219 1.674e-16 1.191e-17
4880.307 1.486e-16 1.172e-17
4881.396 1.933e-16 1.24e-17
4882.483 1.58e-16 1.186e-17
4883.572 1.786e-16 1.22e-17
4884.66 1.845e-16 1.216e-17
4885.747 1.603e-16 1.157e-17
4886.836 1.798e-16 1.198e-17
4887.924 1.66e-16 1.193e-17
4889.013 1.336e-16 1.132e-17
4890.1 1.394e-16 1.134e-17
4891.188 1.577e-16 1.177e-17
4892.277 1.589e-16 1.185e-17
4893.364 1.565e-16 1.167e-17
4894.452 1.821e-16 1.21e-17
4895.541 1.756e-16 1.201e-17
4896.629 1.634e-16 1.179e-17
4897.716 1.688e-16 1.19e-17
4898.805 1.725e-16 1.189e-17
4899.893 1.546e-16 1.153e-17
4900.98 1.792e-16 1.189e-17
4902.068 1.653e-16 1.164e-17
4903.157 1.548e-16 1.143e-17
4904.245 1.625e-16 1.173e-17
4905.332 1.632e-16 1.181e-17
4906.42 1.553e-16 1.149e-17
4907.508 1.781e-16 1.21e-17
4908.596 1.453e-16 1.145e-17
4909.684 1.607e-16 1.174e-17
4910.772 1.785e-16 1.195e-17
4911.86 1.845e-16 1.211e-17
4912.947 1.775e-16 1.194e-17
4914.035 1.477e-16 1.152e-17
4915.123 1.628e-16 1.187e-17
4916.21 1.831e-16 1.216e-17
4917.299 1.596e-16 1.167e-17
4918.387 1.712e-16 1.179e-17
4919.475 1.692e-16 1.172e-17
4920.562 1.734e-16 1.169e-17
4921.65 1.681e-16 1.166e-17
4922.738 1.658e-16 1.159e-17
4923.825 1.62e-16 1.156e-17
4924.913 1.801e-16 1.197e-17
4926.001 1.877e-16 1.21e-17
4927.089 1.669e-16 1.161e-17
4928.176 1.482e-16 1.147e-17
4929.264 1.768e-16 1.177e-17
4930.351 1.836e-16 1.193e-17
4931.438 1.905e-16 1.2e-17
4932.526 1.598e-16 1.136e-17
4933.614 1.648e-16 1.151e-17
4934.701 1.69e-16 1.18e-17
4935.789 1.765e-16 1.171e-17
4936.877 1.769e-16 1.193e-17
4937.965 1.554e-16 1.139e-17
4939.051 1.549e-16 1.143e-17
4940.139 1.888e-16 1.207e-17
4941.227 1.627e-16 1.158e-17
4942.314 1.848e-16 1.206e-17
4943.402 1.725e-16 1.172e-17
4944.489 1.902e-16 1.194e-17
4945.577 1.73e-16 1.177e-17
4946.664 1.45e-16 1.123e-17
4947.752 1.784e-16 1.175e-17
4948.839 1.794e-16 1.18e-17
4949.926 1.607e-16 1.156e-17
4951.014 1.533e-16 1.134e-17
4952.101 1.756e-16 1.195e-17
4953.189 1.769e-16 1.207e-17
4954.276 1.759e-16 1.197e-17
4955.363 1.713e-16 1.18e-17
4956.451 1.502e-16 1.122e-17
4957.537 1.563e-16 1.132e-17
4958.625 1.907e-16 1.188e-17
4959.713 1.548e-16 1.136e-17
4960.8 1.647e-16 1.156e-17
4961.887 1.809e-16 1.185e-17
4962.974 1.592e-16 1.148e-17
4964.062 1.512e-16 1.128e-17
4965.148 1.617e-16 1.172e-17
4966.236 1.568e-16 1.161e-17
4967.323 1.5e-16 1.147e-17
4968.411 1.646e-16 1.173e-17
4969.497 1.668e-16 1.175e-17
4970.584 1.578e-16 1.163e-17
4971.672 1.702e-16 1.194e-17
4972.758 1.752e-16 1.205e-17
4973.846 1.801e-16 1.224e-17
4974.933 1.679e-16 1.207e-17
4976.02 1.464e-16 1.181e-17
4977.107 1.766e-16 1.235e-17
4978.194 1.432e-16 1.195e-17
4979.281 1.681e-16 1.255e-17
4980.368 1.267e-16 1.196e-17
4981.455 1.417e-16 1.237e-17
4982.542 1.509e-16 1.26e-17
4983.629 1.722e-16 1.272e-17
4984.716 1.663e-16 1.265e-17
4985.803 1.553e-16 1.239e-17
4986.89 1.702e-16 1.254e-17
4987.976 1.55e-16 1.227e-17
4989.063 1.588e-16 1.225e-17
4990.151 1.42e-16 1.189e-17
4991.237 1.545e-16 1.203e-17
4992.324 1.481e-16 1.2e-17
4993.411 1.458e-16 1.187e-17
4994.498 1.818e-16 1.23e-17
4995.584 1.434e-16 1.159e-17
4996.671 1.473e-16 1.154e-17
4997.758 1.538e-16 1.153e-17
4998.844 1.41e-16 1.126e-17
4999.931 1.499e-16 1.145e-17
5001.018 1.365e-16 1.12e-17
5002.105 1.752e-16 1.184e-17
5003.191 1.598e-16 1.155e-17
5004.278 1.353e-16 1.111e-17
5005.365 1.47e-16 1.137e-17
5006.451 1.504e-16 1.131e-17
5007.538 1.598e-16 1.155e-17
5008.625 1.739e-16 1.172e-17
5009.712 1.643e-16 1.152e-17
5010.798 1.52e-16 1.134e-17
5011.884 1.444e-16 1.113e-17
5012.971 1.553e-16 1.129e-17
5014.057 1.523e-16 1.128e-17
5015.144 1.406e-16 1.125e-17
5016.231 1.565e-16 1.133e-17
5017.317 1.64e-16 1.16e-17
5018.403 1.195e-16 1.078e-17
5019.49 1.4e-16 1.119e-17
5020.577 1.533e-16 1.142e-17
5021.662 1.536e-16 1.145e-17
5022.749 1.399e-16 1.109e-17
5023.836 1.331e-16 1.114e-17
5024.922 1.358e-16 1.092e-17
5026.008 1.448e-16 1.1e-17
5027.094 1.509e-16 1.127e-17
5028.181 1.454e-16 1.124e-17
5029.267 1.347e-16 1.096e-17
5030.353 1.284e-16 1.076e-17
5031.44 1.411e-16 1.136e-17
5032.526 1.351e-16 1.122e-17
5033.612 1.441e-16 1.116e-17
5034.698 1.76e-16 1.181e-17
5035.785 1.571e-16 1.147e-17
5036.87 1.554e-16 1.138e-17
5037.957 1.568e-16 1.138e-17
5039.043 1.415e-16 1.124e-17
5040.128 1.513e-16 1.114e-17
5041.215 1.452e-16 1.115e-17
5042.301 1.307e-16 1.091e-17
5043.388 1.626e-16 1.157e-17
5044.473 1.282e-16 1.104e-17
5045.559 1.341e-16 1.105e-17
5046.646 1.163e-16 1.076e-17
5047.731 1.388e-16 1.118e-17
5048.817 1.596e-16 1.157e-17
5049.903 1.476e-16 1.117e-17
5050.99 1.408e-16 1.124e-17
5052.075 1.545e-16 1.142e-17
5053.161 1.645e-16 1.176e-17
5054.247 1.665e-16 1.158e-17
5055.332 1.596e-16 1.154e-17
5056.418 1.349e-16 1.118e-17
5057.505 1.594e-16 1.154e-17
5058.591 1.59e-16 1.158e-17
5059.676 1.472e-16 1.129e-17
5060.762 1.706e-16 1.173e-17
5061.848 1.523e-16 1.139e-17
5062.933 1.505e-16 1.141e-17
5064.019 1.44e-16 1.155e-17
5065.105 1.496e-16 1.165e-17
5066.191 1.6e-16 1.16e-17
5067.276 1.662e-16 1.183e-17
5068.362 1.733e-16 1.198e-17
5069.448 1.712e-16 1.217e-17
5070.533 1.438e-16 1.173e-17
5071.619 1.398e-16 1.17e-17
5072.704 1.585e-16 1.179e-17
5073.79 1.91e-16 1.232e-17
5074.875 1.39e-16 1.139e-17
5075.961 1.38e-16 1.153e-17
5077.047 1.855e-16 1.218e-17
5078.131 1.817e-16 1.21e-17
5079.217 1.588e-16 1.181e-17
5080.303 1.542e-16 1.19e-17
5081.389 1.49e-16 1.218e-17
5082.473 1.62e-16 1.282e-17
5083.559 1.551e-16 1.282e-17
5084.645 1.872e-16 1.336e-17
5085.729 1.656e-16 1.304e-17
5086.815 1.641e-16 1.296e-17
5087.901 1.718e-16 1.303e-17
5088.985 1.625e-16 1.255e-17
5090.071 1.689e-16 1.241e-17
5091.156 1.718e-16 1.246e-17
5092.242 1.357e-16 1.156e-17
5093.326 1.64e-16 1.206e-17
5094.412 1.611e-16 1.185e-17
5095.497 1.809e-16 1.226e-17
5096.582 1.48e-16 1.174e-17
5097.667 1.55e-16 1.216e-17
5098.752 1.469e-16 1.182e-17
5099.838 1.871e-16 1.272e-17
5100.922 1.635e-16 1.225e-17
5102.008 1.658e-16 1.235e-17
5103.093 1.676e-16 1.236e-17
5104.177 1.584e-16 1.193e-17
5105.263 1.506e-16 1.169e-17
5106.348 1.67e-16 1.205e-17
5107.433 1.906e-16 1.245e-17
5108.517 1.736e-16 1.213e-17
5109.602 1.985e-16 1.25e-17
5110.688 1.698e-16 1.21e-17
5111.772 1.504e-16 1.174e-17
5112.857 1.69e-16 1.203e-17
5113.942 1.744e-16 1.214e-17
5115.027 1.918e-16 1.258e-17
5116.111 1.599e-16 1.194e-17
5117.196 1.558e-16 1.202e-17
5118.281 1.622e-16 1.21e-17
5119.365 1.745e-16 1.223e-17
5120.45 1.577e-16 1.188e-17
5121.535 1.651e-16 1.208e-17
5122.62 1.744e-16 1.229e-17
5123.704 1.66e-16 1.195e-17
5124.789 1.566e-16 1.186e-17
5125.874 1.756e-16 1.225e-17
5126.958 1.472e-16 1.178e-17
5128.043 1.596e-16 1.205e-17
5129.128 1.668e-16 1.212e-17
5130.212 1.85e-16 1.255e-17
5131.296 1.662e-16 1.212e-17
5132.381 1.794e-16 1.241e-17
5133.466 1.679e-16 1.235e-17
5134.55 1.883e-16 1.282e-17
5135.634 1.471e-16 1.211e-17
5136.719 1.637e-16 1.238e-17
5137.803 1.606e-16 1.237e-17
5138.887 1.832e-16 1.262e-17
5139.972 1.513e-16 1.223e-17
5141.056 1.7e-16 1.256e-17
5142.14 1.713e-16 1.257e-17
5143.225 1.755e-16 1.268e-17
5144.309 1.559e-16 1.248e-17
5145.393 1.475e-16 1.224e-17
5146.477 1.801e-16 1.278e-17
5147.562 1.798e-16 1.273e-17
5148.646 1.687e-16 1.288e-17
5149.729 1.586e-16 1.257e-17
5150.814 1.65e-16 1.28e-17
5151.898 1.834e-16 1.321e-17
5152.982 1.678e-16 1.286e-17
5154.066 1.71e-16 1.322e-17
5155.15 1.581e-16 1.292e-17
5156.235 1.684e-16 1.289e-17
5157.318 1.749e-16 1.316e-17
5158.402 1.351e-16 1.23e-17
5159.486 1.587e-16 1.265e-17
5160.57 1.999e-16 1.324e-17
5161.654 1.745e-16 1.296e-17
5162.738 1.766e-16 1.291e-17
5163.822 1.791e-16 1.301e-17
5164.905 1.879e-16 1.297e-17
5165.989 1.711e-16 1.274e-17
5167.073 1.65e-16 1.255e-17
5168.156 1.907e-16 1.295e-17
5169.24 1.781e-16 1.293e-17
5170.324 1.737e-16 1.272e-17
5171.408 1.529e-16 1.238e-17
5172.491 1.488e-16 1.218e-17
5173.575 1.554e-16 1.245e-17
5174.659 1.829e-16 1.283e-17
5175.742 1.701e-16 1.271e-17
5176.826 1.815e-16 1.296e-17
5177.91 1.719e-16 1.281e-17
5178.994 1.658e-16 1.287e-17
5180.076 1.607e-16 1.251e-17
5181.16 1.798e-16 1.275e-17
5182.244 1.647e-16 1.271e-17
5183.327 1.47e-16 1.236e-17
5184.41 1.675e-16 1.278e-17
5185.494 1.473e-16 1.247e-17
5186.578 1.649e-16 1.282e-17
5187.66 1.636e-16 1.282e-17
5188.744 1.726e-16 1.307e-17
5189.828 1.866e-16 1.331e-17
5190.91 1.607e-16 1.282e-17
5191.994 1.753e-16 1.301e-17
5193.077 1.686e-16 1.281e-17
5194.16 1.841e-16 1.298e-17
5195.243 1.808e-16 1.307e-17
5196.327 1.693e-16 1.302e-17
5197.41 1.745e-16 1.315e-17
5198.492 1.549e-16 1.288e-17
5199.576 1.769e-16 1.341e-17
5200.659 1.754e-16 1.32e-17
5201.741 1.587e-16 1.309e-17
5202.825 1.619e-16 1.318e-17
5203.908 1.56e-16 1.296e-17
5204.991 1.706e-16 1.317e-17
5206.073 1.594e-16 1.29e-17
5207.157 1.618e-16 1.283e-17
5208.24 1.904e-16 1.348e-17
5209.322 1.761e-16 1.324e-17
5210.405 1.595e-16 1.289e-17
5211.488 1.41e-16 1.265e-17
5212.571 1.566e-16 1.299e-17
5213.653 1.587e-16 1.309e-17
5214.736 1.87e-16 1.338e-17
5215.819 1.423e-16 1.249e-17
5216.901 1.64e-16 1.291e-17
5217.984 1.61e-16 1.312e-17
5219.067 1.422e-16 1.291e-17
5220.15 1.76e-16 1.342e-17
5221.232 1.608e-16 1.317e-17
5222.315 1.681e-16 1.34e-17
5223.398 1.68e-16 1.347e-17
5224.48 1.613e-16 1.342e-17
5225.562 2.111e-16 1.409e-17
5226.645 1.785e-16 1.343e-17
5227.728 1.563e-16 1.31e-17
5228.81 1.565e-16 1.292e-17
5229.892 1.539e-16 1.288e-17
5230.975 1.59e-16 1.313e-17
5232.057 1.531e-16 1.304e-17
5233.139 1.645e-16 1.336e-17
5234.222 1.698e-16 1.341e-17
5235.304 1.754e-16 1.331e-17
5236.386 1.309e-16 1.268e-17
5237.468 1.242e-16 1.266e-17
5238.551 1.778e-16 1.377e-17
5239.632 1.548e-16 1.358e-17
5240.715 1.589e-16 1.339e-17
5241.797 1.674e-16 1.345e-17
5242.88 1.465e-16 1.292e-17
5243.961 1.751e-16 1.345e-17
5245.043 1.471e-16 1.275e-17
5246.126 1.647e-16 1.312e-17
5247.207 1.524e-16 1.293e-17
5248.289 1.571e-16 1.305e-17
5249.371 1.577e-16 1.313e-17
5250.453 1.575e-16 1.315e-17
5251.535 1.449e-16 1.29e-17
5252.617 1.511e-16 1.296e-17
5253.699 1.557e-16 1.335e-17
5254.78 1.531e-16 1.324e-17
5255.862 1.616e-16 1.358e-17
5256.944 2.058e-16 1.451e-17
5258.025 1.737e-16 1.402e-17
5259.107 1.789e-16 1.403e-17
5260.189 1.664e-16 1.358e-17
5261.271 1.625e-16 1.334e-17
5262.352 1.479e-16 1.316e-17
5263.434 1.602e-16 1.347e-17
5264.516 1.692e-16 1.325e-17
5265.597 1.856e-16 1.353e-17
5266.678 1.329e-16 1.288e-17
5267.76 1.546e-16 1.315e-17
5268.842 1.409e-16 1.282e-17
5269.923 1.52e-16 1.334e-17
5271.004 1.609e-16 1.346e-17
5272.086 1.405e-16 1.302e-17
5273.167 1.53e-16 1.345e-17
5274.248 1.43e-16 1.313e-17
5275.33 1.325e-16 1.321e-17
5276.411 1.527e-16 1.345e-17
5277.492 1.614e-16 1.376e-17
5278.574 1.631e-16 1.383e-17
5279.655 1.349e-16 1.318e-17
5280.735 1.739e-16 1.378e-17
5281.817 1.482e-16 1.353e-17
5282.898 1.518e-16 1.335e-17
5283.98 1.652e-16 1.365e-17
5285.06 1.427e-16 1.318e-17
5286.141 1.601e-16 1.37e-17
5287.223 1.695e-16 1.404e-17
5288.303 1.414e-16 1.338e-17
5289.384 1.499e-16 1.358e-17
5290.465 1.625e-16 1.398e-17
5291.546 1.582e-16 1.374e-17
5292.627 1.602e-16 1.375e-17
5293.708 1.48e-16 1.368e-17
5294.789 1.702e-16 1.398e-17
5295.869 1.615e-16 1.41e-17
5296.95 1.485e-16 1.39e-17
5298.031 1.665e-16 1.423e-17
5299.112 1.471e-16 1.39e-17
5300.192 1.208e-16 1.34e-17
5301.273 1.612e-16 1.411e-17
5302.354 1.426e-16 1.386e-17
5303.434 1.512e-16 1.417e-17
5304.514 1.528e-16 1.426e-17
5305.595 1.621e-16 1.421e-17
5306.676 1.642e-16 1.433e-17
5307.756 1.629e-16 1.44e-17
5308.837 1.83e-16 1.474e-17
5309.917 1.708e-16 1.464e-17
5310.997 1.618e-16 1.447e-17
5312.078 1.618e-16 1.447e-17
5313.158 1.726e-16 1.494e-17
5314.238 1.762e-16 1.497e-17
5315.318 1.533e-16 1.421e-17
5316.399 1.667e-16 1.469e-17
5317.479 1.469e-16 1.442e-17
5318.559 1.738e-16 1.492e-17
5319.639 1.602e-16 1.478e-17
5320.72 1.948e-16 1.545e-17
5321.799 1.68e-16 1.49e-17
5322.879 1.648e-16 1.524e-17
5323.96 1.412e-16 1.457e-17
5325.04 1.489e-16 1.509e-17
5326.119 1.765e-16 1.546e-17
5327.2 1.591e-16 1.527e-17
5328.28 1.525e-16 1.494e-17
5329.359 1.368e-16 1.485e-17
5330.439 1.896e-16 1.617e-17
5331.519 1.68e-16 1.548e-17
5332.599 1.666e-16 1.564e-17
5333.678 1.509e-16 1.538e-17
5334.758 1.693e-16 1.569e-17
5335.838 1.481e-16 1.516e-17
5336.917 1.93e-16 1.596e-17
5337.997 1.486e-16 1.549e-17
5339.077 1.545e-16 1.571e-17
5340.157 1.45e-16 1.544e-17
5341.236 1.625e-16 1.588e-17
5342.316 1.542e-16 1.565e-17
5343.396 1.612e-16 1.6e-17
5344.474 1.814e-16 1.633e-17
5345.554 1.769e-16 1.642e-17
5346.634 1.649e-16 1.598e-17
5347.714 1.891e-16 1.669e-17
5348.792 1.432e-16 1.634e-17
5349.872 1.838e-16 1.701e-17
5350.951 1.747e-16 1.705e-17
5352.03 1.753e-16 1.846e-17
5353.109 1.77e-16 1.899e-17
5354.189 1.473e-16 1.826e-17
5355.268 1.663e-16 1.902e-17
5356.347 1.891e-16 1.953e-17
5357.426 1.503e-16 1.826e-17
5358.506 1.643e-16 1.86e-17
5359.584 1.563e-16 1.846e-17
5360.663 1.535e-16 1.824e-17
5361.743 1.643e-16 1.814e-17
5362.822 1.802e-16 1.848e-17
5363.9 1.657e-16 1.828e-17
5364.979 1.357e-16 1.781e-17
5366.058 1.806e-16 1.868e-17
5367.136 1.699e-16 1.831e-17
5368.216 1.638e-16 1.843e-17
5369.295 1.611e-16 1.839e-17
5370.374 1.583e-16 1.823e-17
5371.452 1.562e-16 1.821e-17
5372.531 1.517e-16 1.799e-17
5373.61 1.578e-16 1.834e-17
5374.688 1.62e-16 1.839e-17
5375.766 1.705e-16 1.88e-17
5376.845 1.561e-16 1.836e-17
5377.923 1.72e-16 1.863e-17
5379.002 1.498e-16 1.791e-17
5380.081 1.68e-16 1.835e-17
5381.159 1.785e-16 1.849e-17
5382.237 1.884e-16 1.858e-17
5383.316 1.65e-16 1.807e-17
5384.394 1.429e-16 1.777e-17
5385.472 1.545e-16 1.807e-17
5386.55 1.733e-16 1.828e-17
5387.629 1.771e-16 1.826e-17
5388.708 1.602e-16 1.837e-17
5389.785 1.688e-16 1.819e-17
5390.863 1.739e-16 1.838e-17
5391.942 1.433e-16 1.782e-17
5393.019 1.603e-16 1.801e-17
5394.098 1.662e-16 1.819e-17
5395.176 1.805e-16 1.838e-17
5396.254 1.592e-16 1.813e-17
5397.331 1.431e-16 1.752e-17
5398.41 1.397e-16 1.76e-17
5399.488 1.629e-16 1.821e-17
5400.565 1.368e-16 1.792e-17
5401.643 1.642e-16 1.807e-17
5402.721 1.809e-16 1.805e-17
5403.799 1.602e-16 1.777e-17
5404.876 1.707e-16 1.822e-17
5405.954 1.659e-16 1.814e-17
5407.032 1.408e-16 1.773e-17
5408.109 1.696e-16 1.825e-17
5409.187 1.691e-16 1.819e-17
5410.265 1.69e-16 1.828e-17
5411.343 1.835e-16 1.866e-17
5412.419 1.596e-16 1.818e-17
5413.497 1.854e-16 1.875e-17
5414.575 1.623e-16 1.838e-17
5415.652 1.563e-16 1.847e-17
5416.729 1.637e-16 1.847e-17
5417.807 1.921e-16 1.888e-17
5418.884 1.693e-16 1.844e-17
5419.961 1.461e-16 1.813e-17
5421.039 1.396e-16 1.809e-17
5422.116 1.572e-16 1.82e-17
5423.193 1.611e-16 1.821e-17
5424.27 1.553e-16 1.823e-17
5425.347 1.621e-16 1.825e-17
5426.425 1.782e-16 1.848e-17
5427.501 1.82e-16 1.854e-17
5428.578 1.485e-16 1.811e-17
5429.656 1.421e-16 1.794e-17
5430.732 1.76e-16 1.849e-17
5431.809 1.82e-16 1.834e-17
5432.886 1.569e-16 1.791e-17
5433.963 1.372e-16 1.786e-17
5435.039 1.547e-16 1.803e-17
5436.116 1.546e-16 1.814e-17
5437.194 1.268e-16 1.789e-17
5438.27 1.355e-16 1.791e-17
5439.346 1.463e-16 1.793e-17
5440.423 1.485e-16 1.793e-17
5441.5 1.435e-16 1.787e-17
5442.576 1.426e-16 1.794e-17
5443.653 1.306e-16 1.763e-17
5444.73 1.526e-16 1.798e-17
5445.806 1.514e-16 1.81e-17
5446.882 1.395e-16 1.795e-17
5447.959 1.683e-16 1.828e-17
5449.036 1.717e-16 1.828e-17
5450.111 1.391e-16 1.786e-17
5451.188 1.502e-16 1.816e-17
5452.264 1.443e-16 1.797e-17
5453.34 1.536e-16 1.783e-17
5454.416 1.551e-16 1.819e-17
5455.493 1.507e-16 1.882e-17
5456.569 1.581e-16 1.953e-17
5457.645 1.274e-16 1.961e-17
5458.721 1.265e-16 2.093e-17
5459.797 1.269e-16 2.228e-17
5460.872 1.568e-16 2.286e-17
5461.949 1.641e-16 2.239e-17
5463.025 1.509e-16 2.125e-17
5464.1 1.528e-16 2.023e-17
5465.176 1.552e-16 1.952e-17
5466.252 1.715e-16 1.892e-17
5467.328 1.669e-16 1.858e-17
5468.403 1.362e-16 1.79e-17
5469.479 1.387e-16 1.769e-17
5470.555 1.429e-16 1.766e-17
5471.63 1.528e-16 1.756e-17
5472.706 1.528e-16 1.749e-17
5473.782 1.595e-16 1.756e-17
5474.858 1.535e-16 1.735e-17
5475.933 1.488e-16 1.719e-17
5477.008 1.63e-16 1.727e-17
5478.084 1.621e-16 1.723e-17
5479.159 1.5e-16 1.711e-17
5480.234 1.404e-16 1.712e-17
5481.31 1.624e-16 1.728e-17
5482.386 1.494e-16 1.707e-17
5483.46 1.483e-16 1.704e-17
5484.536 1.538e-16 1.71e-17
5485.611 1.251e-16 1.675e-17
5486.685 1.519e-16 1.691e-17
5487.761 1.685e-16 1.695e-17
5488.836 1.681e-16 1.678e-17
5489.912 1.678e-16 1.66e-17
5490.986 1.565e-16 1.638e-17
5492.061 1.528e-16 1.632e-17
5493.136 1.388e-16 1.619e-17
5494.21 1.525e-16 1.628e-17
5495.286 1.512e-16 1.618e-17
5496.361 1.505e-16 1.602e-17
5497.436 1.209e-16 1.583e-17
5498.51 1.294e-16 1.581e-17
5499.585 1.536e-16 1.586e-17
5500.66 1.597e-16 1.599e-17
5501.734 1.556e-16 1.59e-17
5502.809 1.417e-16 1.555e-17
5503.883 1.214e-16 1.527e-17
5504.958 1.348e-16 1.521e-17
5505.581 1.504e-16 1.292e-17
5507.098 1.387e-16 1.28e-17
5508.615 1.408e-16 1.263e-17
5510.132 1.296e-16 1.264e-17
5511.649 1.573e-16 1.276e-17
5513.165 1.389e-16 1.238e-17
5514.683 1.404e-16 1.236e-17
5516.2 1.481e-16 1.238e-17
5517.716 1.369e-16 1.2e-17
5519.234 1.522e-16 1.225e-17
5520.75 1.428e-16 1.206e-17
5522.268 1.434e-16 1.185e-17
5523.785 1.31e-16 1.173e-17
5525.302 1.55e-16 1.178e-17
5526.819 1.56e-16 1.164e-17
5528.336 1.125e-16 1.121e-17
5529.853 1.461e-16 1.141e-17
5531.371 1.307e-16 1.121e-17
5532.888 1.452e-16 1.123e-17
5534.405 1.6e-16 1.136e-17
5535.922 1.353e-16 1.093e-17
5537.44 1.278e-16 1.093e-17
5538.957 1.424e-16 1.109e-17
5540.474 1.513e-16 1.115e-17
5541.992 1.514e-16 1.114e-17
5543.509 1.398e-16 1.096e-17
5545.027 1.352e-16 1.084e-17
5546.543 1.344e-16 1.087e-17
5548.061 1.453e-16 1.083e-17
5549.579 1.299e-16 1.069e-17
5551.096 1.37e-16 1.068e-17
5552.614 1.46e-16 1.075e-17
5554.131 1.266e-16 1.048e-17
5555.649 1.616e-16 1.077e-17
5557.167 1.522e-16 1.075e-17
5558.684 1.458e-16 1.066e-17
5560.202 1.21e-16 1.056e-17
5561.72 1.381e-16 1.08e-17
5563.238 1.272e-16 1.082e-17
5564.756 1.423e-16 1.087e-17
5566.273 1.331e-16 1.089e-17
5567.791 1.537e-16 1.106e-17
5569.309 1.358e-16 1.136e-17
5570.827 5.291e-17 1.425e-17
5572.345 2.036e-16 2.568e-17
5573.863 7.177e-17 3.195e-17
5575.381 8.025e-17 3.497e-17
5576.898 1.669e-16 3.661e-17
5578.417 2.272e-16 3.32e-17
5579.935 1.73e-16 2.668e-17
5581.453 9.971e-17 2.2e-17
5582.971 1.418e-16 1.858e-17
5584.489 1.395e-16 1.574e-17
5586.007 1.275e-16 1.355e-17
5587.526 1.429e-16 1.225e-17
5589.043 1.422e-16 1.128e-17
5590.562 1.463e-16 1.109e-17
5592.08 1.369e-16 1.074e-17
5593.598 1.29e-16 1.069e-17
5595.116 1.317e-16 1.066e-17
5596.635 1.354e-16 1.068e-17
5598.153 1.415e-16 1.07e-17
5599.671 1.252e-16 1.052e-17
5601.19 1.365e-16 1.072e-17
5602.708 1.413e-16 1.071e-17
5604.227 1.478e-16 1.076e-17
5605.746 1.47e-16 1.07e-17
5607.263 1.192e-16 1.056e-17
5608.782 1.177e-16 1.046e-17
5610.3 1.172e-16 1.035e-17
5611.819 1.299e-16 1.036e-17
5613.338 1.215e-16 1.023e-17
5614.856 1.315e-16 1.037e-17
5616.375 1.247e-16 1.027e-17
5617.893 1.232e-16 1.032e-17
5619.412 1.439e-16 1.042e-17
5620.932 1.294e-16 1.028e-17
5622.45 1.616e-16 1.051e-17
5623.969 1.205e-16 1.016e-17
5625.487 1.301e-16 1.016e-17
5627.006 1.35e-16 1.013e-17
5628.526 1.484e-16 1.019e-17
5630.044 1.219e-16 9.872e-18
5631.563 1.158e-16 9.729e-18
5633.081 1.384e-16 9.886e-18
5634.601 1.506e-16 9.976e-18
5636.12 1.073e-16 9.62e-18
5637.639 1.281e-16 9.695e-18
5639.158 1.126e-16 9.536e-18
5640.676 1.306e-16 9.671e-18
5642.196 1.377e-16 9.708e-18
5643.715 1.393e-16 9.69e-18
5645.234 1.128e-16 9.428e-18
5646.753 1.285e-16 9.401e-18
5648.272 1.31e-16 9.527e-18
5649.792 1.255e-16 9.397e-18
5651.31 1.261e-16 9.268e-18
5652.83 1.167e-16 9.213e-18
5654.35 9.759e-17 9.012e-18
5655.868 1.071e-16 9.061e-18
5657.388 1.055e-16 9.085e-18
5658.907 1.038e-16 9.08e-18
5660.427 1.083e-16 9.028e-18
5661.946 1.233e-16 9.178e-18
5663.465 1.056e-16 8.953e-18
5664.985 1.039e-16 8.995e-18
5666.504 1.175e-16 9.214e-18
5668.024 1.419e-16 9.405e-18
5669.544 1.261e-16 9.404e-18
5671.063 1.206e-16 9.423e-18
5672.583 1.128e-16 9.332e-18
5674.102 1.159e-16 9.246e-18
5675.622 1.212e-16 9.249e-18
5677.142 1.105e-16 9.302e-18
5678.661 1.085e-16 9.373e-18
5680.181 1.23e-16 9.687e-18
5681.7 1.206e-16 9.912e-18
5683.22 1.163e-16 1.016e-17
5684.74 1.272e-16 1.044e-17
5686.259 1.075e-16 1.044e-17
5687.78 1.131e-16 1.039e-17
5689.299 1.147e-16 1.032e-17
5690.819 1.123e-16 1.004e-17
5692.338 1.241e-16 9.949e-18
5693.859 1.116e-16 9.615e-18
5695.379 1.299e-16 9.609e-18
5696.898 1.235e-16 9.375e-18
5698.419 1.233e-16 9.376e-18
5699.938 1.106e-16 9.104e-18
5701.459 1.177e-16 9.062e-18
5702.979 1.188e-16 8.987e-18
5704.499 1.299e-16 9.009e-18
5706.019 1.136e-16 8.809e-18
5707.539 1.142e-16 8.839e-18
5709.059 1.242e-16 8.981e-18
5710.58 1.17e-16 8.821e-18
5712.099 1.09e-16 8.779e-18
5713.62 1.246e-16 8.828e-18
5715.14 1.138e-16 8.75e-18
5716.66 1.192e-16 8.755e-18
5718.181 1.231e-16 8.743e-18
5719.701 1.236e-16 8.748e-18
5721.222 1.125e-16 8.652e-18
5722.741 1.432e-16 8.803e-18
5724.262 1.207e-16 8.693e-18
5725.783 1.341e-16 8.737e-18
5727.303 1.278e-16 8.576e-18
5728.824 1.221e-16 8.58e-18
5730.344 1.176e-16 8.572e-18
5731.865 1.173e-16 8.501e-18
5733.386 1.112e-16 8.437e-18
5734.906 1.166e-16 8.56e-18
5736.427 1.167e-16 8.512e-18
5737.947 1.329e-16 8.55e-18
5739.468 1.206e-16 8.489e-18
5740.988 1.24e-16 8.486e-18
5742.509 1.319e-16 8.589e-18
5744.03 1.212e-16 8.449e-18
5745.55 1.32e-16 8.578e-18
5747.071 1.17e-16 8.336e-18
5748.591 1.132e-16 8.459e-18
5750.113 1.256e-16 8.558e-18
5751.634 1.188e-16 8.419e-18
5753.154 1.215e-16 8.53e-18
5754.675 1.289e-16 8.591e-18
5756.196 1.33e-16 8.575e-18
5757.717 1.233e-16 8.598e-18
5759.238 1.21e-16 8.577e-18
5760.759 1.231e-16 8.628e-18
5762.28 1.161e-16 8.661e-18
5763.801 1.205e-16 8.938e-18
5765.322 1.296e-16 9.264e-18
5766.844 1.237e-16 9.429e-18
5768.364 1.216e-16 9.502e-18
5769.886 1.095e-16 9.35e-18
5771.406 1.151e-16 9.182e-18
5772.928 1.282e-16 9.104e-18
5774.449 1.415e-16 8.946e-18
5775.97 1.33e-16 8.781e-18
5777.492 1.314e-16 8.771e-18
5779.012 1.026e-16 8.425e-18
5780.534 1.311e-16 8.738e-18
5782.055 1.316e-16 8.71e-18
5783.576 1.349e-16 8.771e-18
5785.098 1.474e-16 9.143e-18
5786.619 1.391e-16 9.408e-18
5788.141 1.18e-16 9.37e-18
5789.662 1.302e-16 9.608e-18
5791.184 1.343e-16 9.484e-18
5792.705 1.274e-16 9.214e-18
5794.226 1.293e-16 9.04e-18
5795.748 1.32e-16 9.078e-18
5797.269 1.182e-16 8.727e-18
5798.791 1.247e-16 8.741e-18
5800.313 1.147e-16 8.672e-18
5801.834 1.065e-16 8.632e-18
5803.356 1.242e-16 8.754e-18
5804.877 1.422e-16 8.842e-18
5806.4 1.382e-16 8.799e-18
5807.922 1.321e-16 8.711e-18
5809.443 1.218e-16 8.645e-18
5810.965 1.326e-16 8.689e-18
5812.486 1.274e-16 8.659e-18
5814.008 1.291e-16 8.661e-18
5815.531 1.176e-16 8.591e-18
5817.052 1.213e-16 8.64e-18
5818.574 1.259e-16 8.69e-18
5820.096 1.139e-16 8.503e-18
5821.618 1.188e-16 8.659e-18
5823.139 1.434e-16 8.889e-18
5824.662 1.228e-16 8.659e-18
5826.184 1.464e-16 8.812e-18
5827.706 1.298e-16 8.798e-18
5829.228 1.332e-16 8.75e-18
5830.749 1.447e-16 8.866e-18
5832.272 1.401e-16 8.857e-18
5833.795 1.466e-16 8.921e-18
5835.316 1.35e-16 8.876e-18
5836.839 1.465e-16 8.954e-18
5838.36 1.297e-16 8.818e-18
5839.883 1.389e-16 8.796e-18
5841.406 1.419e-16 8.924e-18
5842.927 1.592e-16 9.053e-18
5844.45 1.37e-16 8.894e-18
5845.972 1.532e-16 9.021e-18
5847.494 1.363e-16 8.869e-18
5849.017 1.429e-16 8.957e-18
5850.539 1.481e-16 8.985e-18
5852.062 1.333e-16 8.941e-18
5853.584 1.512e-16 9.05e-18
5855.106 1.472e-16 8.991e-18
5856.629 1.233e-16 8.864e-18
5858.151 1.114e-16 8.752e-18
5859.674 1.495e-16 9.107e-18
5861.196 1.476e-16 9.264e-18
5862.719 1.419e-16 9.39e-18
5864.241 1.377e-16 9.656e-18
5865.764 1.096e-16 9.534e-18
5867.287 1.4e-16 9.576e-18
5868.809 1.292e-16 9.464e-18
5870.332 1.387e-16 9.399e-18
5871.854 1.299e-16 9.281e-18
5873.378 1.264e-16 9.12e-18
5874.901 1.489e-16 9.206e-18
5876.423 1.237e-16 8.918e-18
5877.946 1.464e-16 9.034e-18
5879.468 1.295e-16 8.862e-18
5880.992 1.376e-16 8.882e-18
5882.515 1.359e-16 9.103e-18
5884.037 1.222e-16 1.021e-17
5885.561 1.446e-16 1.233e-17
5887.083 1.083e-16 1.332e-17
5888.606 1.187e-16 1.408e-17
5890.13 1.209e-16 1.446e-17
5891.652 1.434e-16 1.457e-17
5893.176 1.156e-16 1.417e-17
5894.698 1.354e-16 1.403e-17
5896.221 1.218e-16 1.334e-17
5897.745 1.131e-16 1.169e-17
5899.268 1.368e-16 1.064e-17
5900.791 1.367e-16 9.869e-18
5902.314 1.246e-16 9.38e-18
5903.837 1.239e-16 9.092e-18
5905.36 1.332e-16 8.968e-18
5906.884 1.469e-16 9.09e-18
5908.407 1.412e-16 8.879e-18
5909.93 1.329e-16 8.97e-18
5911.454 1.445e-16 9.259e-18
5912.976 1.427e-16 9.262e-18
5914.5 1.395e-16 9.314e-18
5916.024 1.171e-16 9.136e-18
5917.547 1.272e-16 8.99e-18
5919.071 1.314e-16 8.964e-18
5920.593 1.221e-16 8.984e-18
5922.117 1.195e-16 8.918e-18
5923.641 1.309e-16 9.158e-18
5925.164 1.243e-16 9.002e-18
5926.688 1.334e-16 9.13e-18
5928.211 1.482e-16 9.494e-18
5929.735 1.358e-16 9.387e-18
5931.259 1.384e-16 9.543e-18
5932.782 1.436e-16 9.58e-18
5934.306 1.465e-16 9.407e-18
5935.829 1.266e-16 9.043e-18
5937.353 1.29e-16 8.913e-18
5938.876 1.189e-16 8.778e-18
5940.401 1.312e-16 8.761e-18
5941.925 1.377e-16 8.899e-18
5943.448 1.371e-16 8.96e-18
5944.972 1.332e-16 8.898e-18
5946.495 1.32e-16 8.843e-18
5948.02 1.477e-16 9.071e-18
5949.544 1.465e-16 9.17e-18
5951.067 1.349e-16 9.233e-18
5952.592 1.341e-16 9.217e-18
5954.115 1.382e-16 9.155e-18
5955.639 1.261e-16 8.914e-18
5957.164 1.399e-16 8.845e-18
5958.687 1.407e-16 8.836e-18
5960.212 1.651e-16 9.012e-18
5961.735 1.475e-16 8.809e-18
5963.26 1.397e-16 8.7e-18
5964.784 1.41e-16 8.777e-18
5966.308 1.361e-16 8.797e-18
5967.832 1.41e-16 8.807e-18
5969.356 1.197e-16 8.743e-18
5970.88 1.273e-16 8.78e-18
5972.405 1.212e-16 8.812e-18
5973.929 1.429e-16 8.956e-18
5975.453 1.351e-16 8.93e-18
5976.977 1.417e-16 8.975e-18
5978.502 1.387e-16 8.816e-18
5980.026 1.463e-16 8.723e-18
5981.55 1.432e-16 8.709e-18
5983.075 1.317e-16 8.619e-18
5984.599 1.395e-16 8.689e-18
5986.124 1.31e-16 8.571e-18
5987.648 1.253e-16 8.469e-18
5989.173 1.324e-16 8.553e-18
5990.697 1.231e-16 8.475e-18
5992.221 1.302e-16 8.584e-18
5993.746 1.415e-16 8.604e-18
5995.27 1.527e-16 8.75e-18
5996.795 1.271e-16 8.628e-18
5998.32 1.314e-16 8.587e-18
5999.844 1.439e-16 8.716e-18
6001.369 1.492e-16 8.716e-18
6002.893 1.202e-16 8.599e-18
6004.419 1.405e-16 8.648e-18
6005.944 1.175e-16 8.453e-18
6007.468 1.257e-16 8.442e-18
6008.993 1.395e-16 8.478e-18
6010.517 1.309e-16 8.392e-18
6012.042 1.075e-16 8.27e-18
6013.567 1.187e-16 8.28e-18
6015.092 1.349e-16 8.358e-18
6016.617 1.35e-16 8.39e-18
6018.141 1.348e-16 8.325e-18
6019.667 1.37e-16 8.366e-18
6021.191 1.257e-16 8.337e-18
6022.716 1.245e-16 8.258e-18
6024.242 1.325e-16 8.286e-18
6025.766 1.121e-16 8.205e-18
6027.292 1.131e-16 8.191e-18
6028.816 1.263e-16 8.347e-18
6030.342 1.453e-16 8.452e-18
6031.867 1.348e-16 8.44e-18
6033.392 1.403e-16 8.48e-18
6034.917 1.207e-16 8.309e-18
6036.442 1.29e-16 8.202e-18
6037.967 1.288e-16 8.21e-18
6039.493 1.258e-16 8.217e-18
6041.018 1.32e-16 8.137e-18
6042.543 1.247e-16 8.102e-18
6044.068 1.268e-16 8.176e-18
6045.594 1.283e-16 8.083e-18
6047.118 1.194e-16 8.034e-18
6048.644 1.289e-16 8.161e-18
6050.17 1.36e-16 8.107e-18
6051.695 1.352e-16 8.067e-18
6053.22 1.3e-16 8.134e-18
6054.745 1.238e-16 7.969e-18
6056.271 1.334e-16 8.075e-18
6057.797 1.185e-16 7.996e-18
6059.322 1.268e-16 7.984e-18
6060.848 1.278e-16 8.005e-18
6062.373 1.268e-16 8.023e-18
6063.899 1.233e-16 7.994e-18
6065.425 1.299e-16 7.971e-18
6066.95 1.234e-16 8.023e-18
6068.476 1.393e-16 8.062e-18
6070.001 1.4e-16 8.019e-18
6071.527 1.272e-16 7.961e-18
6073.053 1.24e-16 7.927e-18
6074.578 1.016e-16 7.748e-18
6076.104 1.329e-16 7.966e-18
6077.629 1.246e-16 7.901e-18
6079.156 1.25e-16 7.871e-18
6080.681 9.892e-17 7.657e-18
6082.207 1.083e-16 7.799e-18
6083.733 1.032e-16 7.739e-18
6085.259 1.032e-16 7.732e-18
6086.785 1.246e-16 7.812e-18
6088.31 1.349e-16 7.865e-18
6089.836 1.224e-16 7.834e-18
6091.363 1.109e-16 7.713e-18
6092.888 1.061e-16 7.687e-18
6094.415 1.105e-16 7.769e-18
6095.94 1.195e-16 7.845e-18
6097.466 1.201e-16 7.835e-18
6098.993 1.088e-16 7.854e-18
6100.518 1.26e-16 7.973e-18
6102.045 1.199e-16 7.899e-18
6103.57 1.16e-16 8.07e-18
6105.097 1.032e-16 8.049e-18
6106.624 1.17e-16 8.201e-18
6108.149 1.147e-16 8.339e-18
6109.676 1.205e-16 8.468e-18
6111.201 1.253e-16 8.635e-18
6112.728 1.08e-16 8.559e-18
6114.254 1.1e-16 8.467e-18
6115.78 1.129e-16 8.366e-18
6117.307 1.153e-16 8.224e-18
6118.833 9.987e-17 8.033e-18
6120.36 9.49e-17 7.845e-18
6121.885 1.051e-16 7.784e-18
6123.412 1.114e-16 7.829e-18
6124.939 1.119e-16 7.711e-18
6126.465 1.199e-16 7.764e-18
6127.992 9.539e-17 7.628e-18
6129.518 1.126e-16 7.701e-18
6131.045 1.132e-16 7.696e-18
6132.572 1.091e-16 7.733e-18
6134.097 1.066e-16 7.712e-18
6135.624 9.782e-17 7.736e-18
6137.15 1.313e-16 7.943e-18
6138.677 9.345e-17 7.691e-18
6140.205 1.017e-16 7.849e-18
6141.731 1.071e-16 7.801e-18
6143.258 1.212e-16 7.969e-18
6144.784 1.28e-16 7.955e-18
6146.311 1.087e-16 7.783e-18
6147.837 1.265e-16 7.812e-18
6149.364 1.187e-16 7.811e-18
6150.891 1.047e-16 7.71e-18
6152.418 9.6e-17 7.656e-18
6153.945 9.333e-17 7.649e-18
6155.471 1.081e-16 7.79e-18
6156.998 1.163e-16 7.827e-18
6158.526 1.065e-16 7.821e-18
6160.052 1.123e-16 7.925e-18
6161.579 1.295e-16 7.935e-18
6163.106 1.014e-16 7.582e-18
6164.633 1.031e-16 7.552e-18
6166.16 1.24e-16 7.68e-18
6167.687 1.101e-16 7.601e-18
6169.214 1.054e-16 7.575e-18
6170.741 1.113e-16 7.617e-18
6172.268 1.146e-16 7.622e-18
6173.796 9.789e-17 7.433e-18
6175.322 9.966e-17 7.418e-18
6176.85 1.158e-16 7.437e-18
6178.376 1.117e-16 7.364e-18
6179.904 1.078e-16 7.305e-18
6181.431 1.077e-16 7.352e-18
6182.958 1.017e-16 7.347e-18
6184.486 9.782e-17 7.265e-18
6186.013 1.073e-16 7.346e-18
6187.54 1.099e-16 7.293e-18
6189.067 1.159e-16 7.365e-18
6190.595 1.133e-16 7.426e-18
6192.123 1.007e-16 7.287e-18
6193.649 8.58e-17 7.202e-18
6195.177 1.028e-16 7.255e-18
6196.704 9.836e-17 7.231e-18
6198.232 1.005e-16 7.304e-18
6199.76 1.003e-16 7.369e-18
6201.287 1.146e-16 7.603e-18
6202.814 9.014e-17 7.424e-18
6204.341 1.173e-16 7.542e-18
6205.869 1.011e-16 7.401e-18
6207.396 1.001e-16 7.371e-18
6208.924 1.115e-16 7.462e-18
6210.452 1.121e-16 7.466e-18
6211.979 9.885e-17 7.311e-18
6213.507 9.941e-17 7.297e-18
6215.034 9.552e-17 7.223e-18
6216.562 9.565e-17 7.271e-18
6218.091 1.159e-16 7.462e-18
6219.618 9.222e-17 7.3e-18
6221.146 1.037e-16 7.41e-18
6222.673 8.69e-17 7.219e-18
6224.201 1.037e-16 7.281e-18
6225.729 9.848e-17 7.185e-18
6227.257 1.017e-16 7.069e-18
6228.785 1.002e-16 7.274e-18
6230.312 9.338e-17 7.537e-18
6231.841 1.262e-16 8.203e-18
6233.369 1.134e-16 8.511e-18
6234.896 1.117e-16 8.645e-18
6236.425 9.11e-17 8.409e-18
6237.952 1.072e-16 8.271e-18
6239.48 1.053e-16 7.96e-18
6241.008 9.497e-17 7.711e-18
6242.536 1.084e-16 7.706e-18
6244.065 9.612e-17 7.478e-18
6245.592 1.004e-16 7.334e-18
6247.121 1.077e-16 7.311e-18
6248.648 9.39e-17 7.089e-18
6250.177 1.015e-16 7.167e-18
6251.705 1.046e-16 7.217e-18
6253.233 1.075e-16 7.703e-18
6254.762 1.05e-16 8.024e-18
6256.289 9.643e-17 8.261e-18
6257.818 9.811e-17 8.284e-18
6259.346 9.474e-17 7.885e-18
6260.874 9.82e-17 7.807e-18
6262.403 9.291e-17 7.446e-18
6263.931 9.797e-17 7.662e-18
6265.459 1.059e-16 7.75e-18
6266.987 9.731e-17 7.53e-18
6268.516 1.063e-16 7.423e-18
6270.045 1.02e-16 7.138e-18
6271.573 9.778e-17 7.081e-18
6273.101 9.469e-17 7.242e-18
6274.629 1.008e-16 7.303e-18
6276.158 9e-17 7.645e-18
6277.687 1.06e-16 7.348e-18
6279.215 8.229e-17 7.227e-18
6280.744 9.633e-17 7.221e-18
6282.272 1.11e-16 7.641e-18
6283.801 1.004e-16 7.8e-18
6285.33 1.058e-16 7.966e-18
6286.858 8.66e-17 8.053e-18
6288.387 9.414e-17 7.841e-18
6289.915 9.749e-17 7.674e-18
6291.444 9.698e-17 7.337e-18
6292.973 1.073e-16 7.491e-18
6294.501 9.379e-17 7.763e-18
6296.031 1.069e-16 9.365e-18
6297.559 9.392e-17 1.067e-17
6299.088 8.545e-17 1.07e-17
6300.616 9.828e-17 1.003e-17
6302.145 1.04e-16 9.496e-18
6303.675 1.104e-16 8.98e-18
6305.203 9.693e-17 8.387e-18
6306.732 9.41e-17 8.423e-18
6308.261 9.904e-17 7.913e-18
6309.79 1.004e-16 7.267e-18
6311.319 9.501e-17 6.87e-18
6312.848 1.067e-16 7.206e-18
6314.377 9.858e-17 6.803e-18
6315.905 7.995e-17 6.815e-18
6317.435 9.63e-17 7.168e-18
6318.964 9.254e-17 6.85e-18
6320.493 9.371e-17 7.282e-18
6322.022 1.006e-16 7.537e-18
6323.551 8.298e-17 6.856e-18
6325.08 9.689e-17 7.13e-18
6326.609 1.007e-16 7.763e-18
6328.139 8.763e-17 7.675e-18
6329.668 1.019e-16 7.756e-18
6331.197 1.094e-16 7.328e-18
6332.726 9.12e-17 6.925e-18
6334.255 1.006e-16 7.08e-18
6335.785 1.063e-16 6.964e-18
6337.314 9.603e-17 6.876e-18
6338.843 9.057e-17 6.743e-18
6340.373 9.614e-17 6.77e-18
6341.902 1.095e-16 6.891e-18
6343.431 1.001e-16 6.909e-18
6344.961 9.167e-17 6.903e-18
6346.49 9.396e-17 7.056e-18
6348.02 9.139e-17 6.91e-18
6349.549 8.619e-17 6.913e-18
6351.079 9.474e-17 7.017e-18
6352.608 9.629e-17 7.242e-18
6354.137 9.052e-17 7.27e-18
6355.667 9.733e-17 7.433e-18
6357.196 1.037e-16 7.387e-18
6358.726 9.479e-17 7.41e-18
6360.255 1.019e-16 7.739e-18
6361.785 9.015e-17 7.854e-18
6363.315 1.002e-16 8.06e-18
6364.844 1.009e-16 7.702e-18
6366.374 9.474e-17 7.188e-18
6367.903 8.444e-17 6.832e-18
6369.434 1.003e-16 6.77e-18
6370.964 9.351e-17 6.681e-18
6372.493 8.88e-17 6.689e-18
6374.023 9.022e-17 6.703e-18
6375.552 1.033e-16 6.898e-18
6377.082 9.275e-17 6.872e-18
6378.613 1.112e-16 7.046e-18
6380.142 7.991e-17 6.872e-18
6381.672 8.705e-17 6.859e-18
6383.201 9.399e-17 7.081e-18
6384.732 8.667e-17 7.015e-18
6386.261 7.519e-17 6.957e-18
6387.791 8.668e-17 6.867e-18
6389.322 1.012e-16 6.835e-18
6390.851 8.427e-17 6.665e-18
6392.382 9.853e-17 6.764e-18
6393.911 9.211e-17 6.641e-18
6395.441 9.92e-17 6.748e-18
6396.972 9.491e-17 6.706e-18
6398.501 1.049e-16 6.834e-18
6400.032 9.713e-17 6.742e-18
6401.561 1.035e-16 6.824e-18
6403.092 8.593e-17 6.737e-18
6404.622 9.401e-17 6.759e-18
6406.152 9.881e-17 6.702e-18
6407.683 1.019e-16 6.708e-18
6409.212 9.939e-17 6.833e-18
6410.743 1.074e-16 6.85e-18
6412.273 1.009e-16 6.873e-18
6413.803 8.503e-17 6.741e-18
6415.334 9.782e-17 6.842e-18
6416.864 1.031e-16 6.925e-18
6418.394 9.709e-17 6.833e-18
6419.924 1.054e-16 6.943e-18
6421.455 9.779e-17 6.789e-18
6422.986 9.755e-17 6.789e-18
6424.515 1.074e-16 6.804e-18
6426.046 1.002e-16 6.783e-18
6427.576 1.007e-16 6.823e-18
6429.107 1.118e-16 6.895e-18
6430.638 1.056e-16 6.861e-18
6432.168 9.811e-17 6.76e-18
6433.699 8.872e-17 6.672e-18
6435.229 1.068e-16 6.712e-18
6436.76 9.348e-17 6.716e-18
6438.29 9.099e-17 6.625e-18
6439.821 9.377e-17 6.6e-18
6441.352 9.71e-17 6.662e-18
6442.882 1.044e-16 6.679e-18
6444.413 1.083e-16 6.709e-18
6445.943 9.745e-17 6.72e-18
6447.474 9.348e-17 6.676e-18
6449.005 1.055e-16 6.759e-18
6450.535 9.066e-17 6.748e-18
6452.066 9.289e-17 6.713e-18
6453.596 1.041e-16 6.842e-18
6455.128 1.022e-16 6.812e-18
6456.659 7.704e-17 6.629e-18
6458.189 9.266e-17 6.714e-18
6459.72 9.051e-17 6.852e-18
6461.251 9.707e-17 7.095e-18
6462.782 9.237e-17 7.23e-18
6464.312 1.095e-16 7.527e-18
6465.844 9.153e-17 7.393e-18
6467.375 9.363e-17 7.339e-18
6468.905 1.108e-16 7.363e-18
6470.437 1.049e-16 7.214e-18
6471.967 9.973e-17 6.957e-18
6473.498 1.034e-16 6.853e-18
6475.03 9.892e-17 6.717e-18
6476.56 1.048e-16 6.719e-18
6478.092 9.644e-17 6.624e-18
6479.622 9.684e-17 6.558e-18
6481.154 1.001e-16 6.479e-18
6482.685 9.866e-17 6.429e-18
6484.216 9.659e-17 6.375e-18
6485.747 9.41e-17 6.368e-18
6487.278 9.815e-17 6.346e-18
6488.81 1.009e-16 6.411e-18
6490.341 1.054e-16 6.475e-18
6491.872 1.049e-16 6.486e-18
6493.404 9.421e-17 6.698e-18
6494.934 1.009e-16 7.167e-18
6496.466 1.067e-16 7.445e-18
6497.997 9.366e-17 7.51e-18
6499.528 1.005e-16 7.476e-18
6501.06 9.899e-17 7.077e-18
6502.591 9.268e-17 6.838e-18
6504.123 8.951e-17 6.719e-18
6505.653 1.045e-16 6.742e-18
6507.185 9.513e-17 6.484e-18
6508.717 9.591e-17 6.416e-18
6510.248 9.886e-17 6.356e-18
6511.78 1.023e-16 6.356e-18
6513.311 1.053e-16 6.331e-18
6514.843 9.3e-17 6.271e-18
6516.375 8.772e-17 6.154e-18
6517.906 9.849e-17 6.332e-18
6519.438 1.008e-16 6.422e-18
6520.969 9.28e-17 6.488e-18
6522.501 9.362e-17 6.478e-18
6524.032 9.809e-17 6.39e-18
6525.564 1.033e-16 6.383e-18
6527.096 9.174e-17 6.311e-18
6528.627 9.683e-17 6.65e-18
6530.159 1.033e-16 7.013e-18
6531.69 1.03e-16 7.143e-18
6533.222 1.117e-16 7.096e-18
6534.754 1.125e-16 6.82e-18
6536.286 1.034e-16 6.488e-18
6537.818 9.998e-17 6.422e-18
6539.349 1.051e-16 6.525e-18
6540.881 1.05e-16 6.631e-18
6542.413 8.591e-17 6.55e-18
6543.945 1.03e-16 6.653e-18
6545.477 9.91e-17 6.426e-18
6547.008 8.652e-17 6.24e-18
6548.541 1.054e-16 6.546e-18
6550.072 1.009e-16 6.916e-18
6551.604 1.047e-16 7.127e-18
6553.137 9.07e-17 7.146e-18
6554.668 9.776e-17 6.838e-18
6556.201 9.65e-17 6.479e-18
6557.732 9.558e-17 6.63e-18
6559.264 1.002e-16 7.035e-18
6560.797 1.031e-16 7.266e-18
6562.328 1.003e-16 7.319e-18
6563.861 8.472e-17 6.963e-18
6565.392 1.045e-16 6.732e-18
6566.925 9.089e-17 6.481e-18
6568.458 1.029e-16 6.538e-18
6569.989 1.052e-16 6.45e-18
6571.522 1.007e-16 6.406e-18
6573.053 1.053e-16 6.628e-18
6574.586 1.08e-16 6.866e-18
6576.118 1.058e-16 6.91e-18
6577.65 9.191e-17 6.76e-18
6579.183 1.023e-16 6.543e-18
6580.715 9.742e-17 6.231e-18
6582.247 9.458e-17 6.09e-18
6583.779 9.818e-17 6.024e-18
6585.312 9.838e-17 6.055e-18
6586.845 9.996e-17 5.992e-18
6588.377 9.055e-17 5.966e-18
6589.909 9.14e-17 5.974e-18
6591.441 1.04e-16 6.056e-18
6592.974 8.941e-17 6.082e-18
6594.507 9.824e-17 6.213e-18
6596.039 1.021e-16 6.223e-18
6597.572 9.952e-17 6.196e-18
6599.104 9.831e-17 6.192e-18
6600.637 9.666e-17 6.292e-18
6602.169 1.024e-16 6.433e-18
6603.701 1.051e-16 6.483e-18
6605.234 1.03e-16 6.349e-18
6606.767 1.313e-16 6.356e-18
6608.3 1.077e-16 6.086e-18
6609.832 1.121e-16 6.082e-18
6611.365 1.117e-16 6.037e-18
6612.898 1.108e-16 6.044e-18
6614.43 1.049e-16 5.968e-18
6615.963 1.128e-16 6.046e-18
6617.495 8.864e-17 5.878e-18
6619.028 9.637e-17 5.917e-18
6620.56 1.044e-16 5.969e-18
6622.094 1.013e-16 5.991e-18
6623.627 1.124e-16 6.219e-18
6625.159 1.183e-16 6.276e-18
6626.692 9.875e-17 6.121e-18
6628.225 9.901e-17 6.051e-18
6629.758 1.082e-16 6.187e-18
6631.291 1.05e-16 6.256e-18
6632.823 9.995e-17 6.21e-18
6634.357 1.032e-16 6.241e-18
6635.889 1.086e-16 6.18e-18
6637.422 1.094e-16 6.067e-18
6638.956 9.619e-17 5.963e-18
6640.488 1.056e-16 5.963e-18
6642.022 1.043e-16 5.971e-18
6643.554 9.817e-17 5.911e-18
6645.088 9.498e-17 5.908e-18
6646.62 1.03e-16 5.989e-18
6648.154 1.051e-16 5.989e-18
6649.687 9.493e-17 5.936e-18
6651.22 1.026e-16 5.943e-18
6652.753 1.108e-16 6.049e-18
6654.286 1.088e-16 6.032e-18
6655.819 1.093e-16 6.042e-18
6657.353 9.179e-17 5.895e-18
6658.885 9.623e-17 6.013e-18
6660.419 1.013e-16 6.043e-18
6661.952 1.021e-16 6.097e-18
6663.485 9.906e-17 6.123e-18
6665.019 1.025e-16 6.159e-18
6666.552 9.887e-17 6.073e-18
6668.086 1.122e-16 6.207e-18
6669.618 1.025e-16 6.042e-18
6671.152 1.11e-16 6.101e-18
6672.685 1.012e-16 6.028e-18
6674.219 9.939e-17 6.01e-18
6675.752 1.022e-16 5.965e-18
6677.285 1.017e-16 5.985e-18
6678.819 9.785e-17 5.946e-18
6680.352 1.07e-16 6.016e-18
6681.886 9.687e-17 5.96e-18
6683.42 1.003e-16 5.949e-18
6684.953 1.053e-16 6.018e-18
6686.487 1.012e-16 5.98e-18
6688.019 1.022e-16 5.939e-18
6689.553 9.877e-17 5.88e-18
6691.087 9.596e-17 5.924e-18
6692.62 1.007e-16 5.924e-18
6694.154 1.043e-16 6.055e-18
6695.687 1.101e-16 6.066e-18
6697.221 1.107e-16 6.093e-18
6698.755 9.936e-17 6.052e-18
6700.289 9.59e-17 6.098e-18
6701.823 1.177e-16 6.153e-18
6703.356 9.268e-17 6.079e-18
6704.89 1.055e-16 6.174e-18
6706.423 9.499e-17 6.071e-18
6707.957 1.057e-16 6.145e-18
6709.491 9.897e-17 6.107e-18
6711.025 8.681e-17 6.031e-18
6712.559 1.102e-16 6.174e-18
6714.092 9.978e-17 6.121e-18
6715.626 1.007e-16 6.055e-18
6717.161 1.062e-16 6.102e-18
6718.694 9.229e-17 5.961e-18
6720.228 1.062e-16 6.021e-18
6721.762 1.024e-16 5.927e-18
6723.296 1.027e-16 5.923e-18
6724.829 9.478e-17 5.921e-18
6726.364 1.117e-16 5.959e-18
6727.898 1.043e-16 5.927e-18
6729.431 1.051e-16 5.954e-18
6730.966 9.409e-17 5.813e-18
6732.499 1.009e-16 5.919e-18
6734.034 1.067e-16 5.9e-18
6735.568 9.964e-17 5.923e-18
6737.102 9.808e-17 5.876e-18
6738.636 1.027e-16 5.914e-18
6740.17 1.084e-16 5.94e-18
6741.704 9.898e-17 5.918e-18
6743.238 1.041e-16 5.935e-18
6744.772 8.557e-17 5.767e-18
6746.307 1.126e-16 5.906e-18
6747.841 1.006e-16 5.846e-18
6749.375 9.189e-17 5.678e-18
6750.909 9.497e-17 5.749e-18
6752.444 9.318e-17 5.73e-18
6753.978 1.065e-16 5.856e-18
6755.512 1.055e-16 5.813e-18
6757.047 1.021e-16 5.816e-18
6758.58 1.074e-16 5.792e-18
6760.115 1.097e-16 5.806e-18
6761.65 9.95e-17 5.697e-18
6763.184 1.052e-16 5.748e-18
6764.718 9.202e-17 5.649e-18
6766.252 9.727e-17 5.622e-18
6767.787 1.021e-16 5.668e-18
6769.321 1.058e-16 5.695e-18
6770.856 1.025e-16 5.672e-18
6772.391 1.04e-16 5.682e-18
6773.924 1.01e-16 5.641e-18
6775.459 9.511e-17 5.577e-18
6776.993 9.725e-17 5.584e-18
6778.528 1.132e-16 5.708e-18
6780.063 1.088e-16 5.66e-18
6781.597 9.651e-17 5.596e-18
6783.132 1.036e-16 5.637e-18
6784.666 9.419e-17 5.601e-18
6786.201 9.669e-17 5.597e-18
6787.736 9.714e-17 5.566e-18
6789.27 9.938e-17 5.559e-18
6790.805 1.089e-16 5.628e-18
6792.339 9.571e-17 5.507e-18
6793.875 9.638e-17 5.553e-18
6795.409 9.109e-17 5.416e-18
6796.944 1.084e-16 5.512e-18
6798.479 1.065e-16 5.577e-18
6800.013 9.706e-17 5.469e-18
6801.548 1.085e-16 5.53e-18
6803.083 1.044e-16 5.48e-18
6804.618 9.546e-17 5.432e-18
6806.153 9.974e-17 5.415e-18
6807.687 1.001e-16 5.458e-18
6809.223 1.076e-16 5.497e-18
6810.757 1.023e-16 5.415e-18
6812.292 1.104e-16 5.487e-18
6813.827 1.019e-16 5.439e-18
6815.362 1.062e-16 5.444e-18
6816.897 8.59e-17 5.305e-18
6818.432 1.055e-16 5.461e-18
6819.967 9.664e-17 5.373e-18
6821.501 1.054e-16 5.487e-18
6823.037 1.143e-16 5.892e-18
6824.572 9.384e-17 6.446e-18
6826.107 9.431e-17 7.038e-18
6827.642 8.538e-17 7.313e-18
6829.177 8.792e-17 7.569e-18
6830.712 9.845e-17 7.592e-18
6832.248 9.908e-17 7.251e-18
6833.782 9.176e-17 6.952e-18
6835.318 1.036e-16 6.547e-18
6836.852 9.731e-17 5.995e-18
6838.388 9.968e-17 5.807e-18
6839.922 9.866e-17 5.974e-18
6841.458 1.17e-16 6.232e-18
6842.994 1.042e-16 5.883e-18
6844.528 1.002e-16 5.543e-18
6846.064 9.86e-17 5.539e-18
6847.599 9.775e-17 5.492e-18
6849.134 9.316e-17 5.524e-18
6850.67 1.058e-16 5.736e-18
6852.205 1.087e-16 5.59e-18
6853.741 9.687e-17 5.54e-18
6855.275 9.701e-17 5.44e-18
6856.811 1.072e-16 5.611e-18
6858.347 1.081e-16 6.269e-18
6859.882 1.009e-16 7.486e-18
6861.417 1.119e-16 8.041e-18
6862.952 8.815e-17 8.301e-18
6864.488 7.895e-17 8.256e-18
6866.023 8.04e-17 7.511e-18
6867.559 8.98e-17 7.618e-18
6869.095 1.035e-16 8.295e-18
6870.63 1.076e-16 8.374e-18
6872.166 1.144e-16 7.699e-18
6873.701 1.056e-16 7.402e-18
6875.237 9.866e-17 6.858e-18
6876.773 1.179e-16 6.974e-18
6878.308 1.112e-16 6.825e-18
6879.844 1.152e-16 6.808e-18
6881.379 1.02e-16 6.57e-18
6882.915 8.579e-17 6.269e-18
6884.45 9.656e-17 6.141e-18
6885.986 9.009e-17 6.733e-18
6887.522 9.683e-17 7.042e-18
6889.057 1.181e-16 7.393e-18
6890.593 1.007e-16 7.053e-18
6892.128 1.079e-16 6.709e-18
6893.664 1.037e-16 6.513e-18
6895.201 9.376e-17 6.387e-18
6896.736 8.654e-17 6.37e-18
6898.272 8.543e-17 6.485e-18
6899.807 9.665e-17 6.774e-18
6901.343 9.942e-17 6.961e-18
6902.88 1.034e-16 6.34e-18
6904.415 9.086e-17 5.829e-18
6905.951 9.647e-17 6.224e-18
6907.486 1.048e-16 6.46e-18
6909.023 1e-16 6.608e-18
6910.558 1.034e-16 7.287e-18
6912.094 9.781e-17 6.835e-18
6913.631 9.358e-17 6.76e-18
6915.166 9.998e-17 6.239e-18
6916.703 8.291e-17 5.892e-18
6918.238 9.087e-17 6.548e-18
6919.774 1.064e-16 7.446e-18
6921.311 9.797e-17 7.854e-18
6922.846 1.052e-16 7.502e-18
6924.383 7.62e-17 7.01e-18
6925.918 8.898e-17 6.314e-18
6927.455 9.916e-17 6.024e-18
6928.991 8.313e-17 5.707e-18
6930.527 9.715e-17 5.873e-18
6932.063 9.296e-17 5.692e-18
6933.599 8.559e-17 5.786e-18
6935.135 1.032e-16 6.544e-18
6936.671 1.004e-16 6.606e-18
6938.208 9.474e-17 6.787e-18
6939.744 9.615e-17 6.84e-18
6941.28 1.038e-16 6.499e-18
6942.817 9.015e-17 6.178e-18
6944.352 8.041e-17 6.553e-18
6945.889 1.004e-16 7.529e-18
6947.426 9.583e-17 7.756e-18
6948.961 1.051e-16 7.722e-18
6950.498 1.035e-16 7.371e-18
6952.034 9.089e-17 6.49e-18
6953.571 9.112e-17 5.921e-18
6955.106 7.959e-17 5.843e-18
6956.643 9.949e-17 6.228e-18
6958.18 9.857e-17 6e-18
6959.716 9.369e-17 5.849e-18
6961.253 8.868e-17 6.026e-18
6962.788 8.552e-17 5.864e-18
6964.325 8.641e-17 6.063e-18
6965.862 8.841e-17 6.381e-18
6967.398 9.258e-17 6.58e-18
6968.935 1.016e-16 6.327e-18
6970.471 9.727e-17 6.654e-18
6972.008 1.02e-16 6.507e-18
6973.545 9.628e-17 6.752e-18
6975.081 9.535e-17 6.845e-18
6976.618 9.68e-17 7.167e-18
6978.154 8.811e-17 7.105e-18
6979.691 7.929e-17 6.684e-18
6981.227 8.854e-17 6.091e-18
6982.764 9.11e-17 5.92e-18
6984.301 9.456e-17 6.106e-18
6985.837 9.275e-17 6.037e-18
6987.374 8.977e-17 5.832e-18
6988.91 8.833e-17 5.929e-18
6990.447 9.603e-17 5.959e-18
6991.984 8.799e-17 5.977e-18
6993.521 8.292e-17 5.809e-18
6995.058 9.547e-17 5.896e-18
6996.594 9.8e-17 5.979e-18
6998.131 8.657e-17 6.009e-18
6999.667 9.033e-17 6.051e-18
7001.205 8.504e-17 6.157e-18
7002.742 9.189e-17 5.953e-18
7004.278 8.458e-17 5.94e-18
7005.815 9.736e-17 6.207e-18
7007.352 8.078e-17 6.272e-18
7008.889 8.618e-17 6.125e-18
7010.426 8.961e-17 6.313e-18
7011.963 7.586e-17 6.418e-18
7013.5 8.684e-17 6.034e-18
7015.036 9.469e-17 5.873e-18
7016.574 9.607e-17 5.761e-18
7018.111 8.422e-17 5.63e-18
7019.648 9.157e-17 5.735e-18
7021.185 8.914e-17 5.462e-18
7022.721 9.4e-17 5.802e-18
7024.259 8.232e-17 5.562e-18
7025.795 9.767e-17 5.748e-18
7027.333 7.94e-17 5.66e-18
7028.87 8.263e-17 5.519e-18
7030.407 9.673e-17 5.833e-18
7031.944 8.875e-17 5.586e-18
7033.481 9.722e-17 5.68e-18
7035.018 8.413e-17 5.573e-18
7036.556 8.928e-17 5.86e-18
7038.093 9.233e-17 5.991e-18
7039.63 9.366e-17 5.817e-18
7041.167 7.978e-17 5.696e-18
7042.704 9.17e-17 6.066e-18
7044.241 9.186e-17 6.298e-18
7045.779 7.799e-17 6.307e-18
7047.316 9e-17 6.216e-18
7048.853 9.753e-17 6.353e-18
7050.391 8.969e-17 6.158e-18
7051.927 9.859e-17 6.172e-18
7053.465 9.336e-17 5.811e-18
7055.003 8.928e-17 5.752e-18
7056.54 8.66e-17 5.511e-18
7058.078 8.323e-17 5.616e-18
7059.614 7.885e-17 5.603e-18
7061.152 9.282e-17 5.71e-18
7062.689 9.178e-17 5.83e-18
7064.227 9.084e-17 5.832e-18
7065.765 9.733e-17 6.055e-18
7067.301 9.511e-17 5.75e-18
7068.839 9.337e-17 5.582e-18
7070.376 9.398e-17 5.678e-18
7071.914 7.799e-17 5.656e-18
7073.452 7.834e-17 5.346e-18
7074.989 8.932e-17 5.556e-18
7076.527 1.026e-16 5.703e-18
7078.064 7.786e-17 5.893e-18
7079.602 1.026e-16 5.996e-18
7081.14 9.181e-17 5.735e-18
7082.677 8.116e-17 5.769e-18
7084.215 9.636e-17 5.887e-18
7085.752 7.765e-17 5.57e-18
7087.29 9.435e-17 5.924e-18
7088.827 8.61e-17 5.838e-18
7090.365 7.752e-17 5.563e-18
7091.903 9.11e-17 5.693e-18
7093.44 8.755e-17 5.409e-18
7094.978 8.233e-17 5.29e-18
7096.516 8.618e-17 5.324e-18
7098.054 8.891e-17 5.599e-18
7099.592 8.387e-17 5.201e-18
7101.129 8.779e-17 5.183e-18
7102.667 7.932e-17 5.085e-18
7104.204 9.313e-17 5.383e-18
7105.743 7.436e-17 5.143e-18
7107.28 8.301e-17 5.309e-18
7108.818 8.583e-17 5.326e-18
7110.356 9.366e-17 5.342e-18
7111.894 9.194e-17 5.333e-18
7113.432 8.818e-17 5.171e-18
7114.969 7.879e-17 5.258e-18
7116.508 8.279e-17 5.15e-18
7118.046 8.437e-17 5.378e-18
7119.583 8.172e-17 5.127e-18
7121.122 9.034e-17 5.341e-18
7122.659 8.194e-17 5.122e-18
7124.197 8.423e-17 5.334e-18
7125.736 8.051e-17 5.392e-18
7127.273 7.938e-17 5.513e-18
7128.812 9.565e-17 5.556e-18
7130.349 8.857e-17 5.595e-18
7131.888 1.038e-16 5.613e-18
7133.425 9.833e-17 5.554e-18
7134.963 7.286e-17 5.204e-18
7136.502 7.435e-17 5.438e-18
7138.04 8.404e-17 5.458e-18
7139.578 8.336e-17 5.504e-18
7141.116 8.763e-17 5.753e-18
7142.654 7.12e-17 5.69e-18
7144.193 8.097e-17 5.747e-18
7145.73 7.747e-17 5.407e-18
7147.269 6.539e-17 5.194e-18
7148.806 9.022e-17 5.566e-18
7150.345 7.42e-17 5.392e-18
7151.883 8.005e-17 5.279e-18
7153.421 8.533e-17 5.303e-18
7154.96 8.619e-17 5.349e-18
7156.498 8.336e-17 5.42e-18
7158.036 7.167e-17 5.541e-18
7159.574 9.313e-17 5.7e-18
7161.113 8.225e-17 5.715e-18
7162.652 8.971e-17 5.66e-18
7164.189 7.791e-17 5.553e-18
7165.728 7.463e-17 5.662e-18
7167.266 7.572e-17 5.61e-18
7168.805 8.004e-17 5.521e-18
7170.343 7.652e-17 5.509e-18
7171.881 8.657e-17 5.488e-18
7173.42 8.499e-17 5.68e-18
7174.958 8.456e-17 6.049e-18
7176.497 6.936e-17 5.851e-18
7178.035 8.709e-17 5.743e-18
7179.574 6.839e-17 5.686e-18
7181.113 8.338e-17 5.868e-18
7182.65 6.523e-17 5.736e-18
7184.189 7.155e-17 5.648e-18
7185.727 8.287e-17 5.871e-18
7187.266 8.971e-17 5.887e-18
7188.805 8.044e-17 5.768e-18
7190.343 6.612e-17 5.41e-18
7191.882 7.818e-17 5.665e-18
7193.42 6.86e-17 5.635e-18
7194.959 6.453e-17 5.474e-18
7196.497 7.381e-17 5.273e-18
7198.036 8.829e-17 5.917e-18
7199.575 7.678e-17 5.619e-18
7201.113 8.249e-17 5.799e-18
7202.653 6.912e-17 5.799e-18
7204.191 8.178e-17 5.773e-18
7205.73 8.258e-17 5.562e-18
7207.269 7.528e-17 5.491e-18
7208.807 8.026e-17 5.558e-18
7210.346 7.989e-17 5.527e-18
7211.884 8.216e-17 5.351e-18
7213.424 7.789e-17 5.349e-18
7214.962 7.886e-17 5.18e-18
7216.501 7.512e-17 5.35e-18
7218.04 7.877e-17 5.531e-18
7219.578 7.208e-17 5.526e-18
7221.118 8.055e-17 5.746e-18
7222.656 9.526e-17 6.012e-18
7224.195 7.83e-17 5.586e-18
7225.735 8.984e-17 5.704e-18
7227.273 7.636e-17 5.718e-18
7228.812 7.807e-17 5.577e-18
7230.35 7.854e-17 5.867e-18
7231.89 7.333e-17 5.848e-18
7233.428 8.199e-17 6.62e-18
7234.968 7.718e-17 8.275e-18
7236.507 7.462e-17 9.247e-18
7238.045 7.195e-17 1.032e-17
7239.585 6.259e-17 1.083e-17
7241.123 7.196e-17 1.138e-17
7242.663 7.471e-17 1.143e-17
7244.202 6.612e-17 1.04e-17
7245.741 7.349e-17 9.544e-18
7247.28 7.946e-17 7.746e-18
7248.818 7.161e-17 7.484e-18
7250.358 7.125e-17 7.021e-18
7251.898 7.611e-17 7.051e-18
7253.436 7.148e-17 7.128e-18
7254.976 8.136e-17 6.558e-18
7256.514 7.456e-17 5.952e-18
7258.054 7.82e-17 5.737e-18
7259.592 7.049e-17 5.82e-18
7261.132 6.833e-17 5.578e-18
7262.671 6.336e-17 5.882e-18
7264.21 7.739e-17 6.074e-18
7265.75 8.171e-17 6.238e-18
7267.288 7.182e-17 6.032e-18
7268.828 8.365e-17 6.126e-18
7270.368 7.614e-17 7.11e-18
7271.906 6.592e-17 9.266e-18
7273.446 8.421e-17 1.084e-17
7274.985 7.36e-17 1.097e-17
7276.525 8.801e-17 1.126e-17
7278.063 6.615e-17 9.083e-18
7279.603 6.052e-17 8.016e-18
7281.143 6.737e-17 7.787e-18
7282.682 5.027e-17 8.047e-18
7284.221 6.266e-17 7.806e-18
7285.76 7.263e-17 7.367e-18
7287.3 7.504e-17 6.567e-18
7288.84 6.995e-17 6.019e-18
7290.379 7.229e-17 5.96e-18
7291.918 8.233e-17 6.378e-18
7293.457 7.54e-17 6.501e-18
7294.997 8.428e-17 6.416e-18
7296.536 7.603e-17 6.072e-18
7298.076 7.116e-17 6.262e-18
7299.616 7.053e-17 6.466e-18
7301.155 6.277e-17 7.086e-18
7302.695 5.021e-17 6.987e-18
7304.234 7.324e-17 6.895e-18
7305.774 6.185e-17 6.176e-18
7307.314 6.401e-17 5.947e-18
7308.853 7.304e-17 5.677e-18
7310.393 7.526e-17 6.135e-18
7311.932 7.35e-17 8.461e-18
7313.472 6.546e-17 9.631e-18
7315.011 6.662e-17 9.663e-18
7316.551 5.774e-17 9.021e-18
7318.091 9.44e-17 7.724e-18
7319.63 6.831e-17 6.118e-18
7321.17 6.768e-17 5.449e-18
7322.709 7.408e-17 5.45e-18
7324.249 7.214e-17 6.157e-18
7325.789 6.333e-17 6.973e-18
7327.329 7.678e-17 7.438e-18
7328.869 6.554e-17 7.239e-18
7330.408 7.431e-17 6.874e-18
7331.948 7.741e-17 5.983e-18
7333.488 7.159e-17 5.451e-18
7335.028 9.243e-17 6.066e-18
7336.568 7.075e-17 8.386e-18
7338.107 9.385e-17 9.796e-18
7339.647 5.615e-17 9.853e-18
7341.186 6.792e-17 9.368e-18
7342.727 7.305e-17 7.573e-18
7344.267 7.065e-17 6.192e-18
7345.806 6.345e-17 5.68e-18
7347.347 6.625e-17 5.133e-18
7348.886 7.026e-17 5.295e-18
7350.426 6.954e-17 5.449e-18
7351.967 7.019e-17 5.497e-18
7353.506 7.923e-17 6.121e-18
7355.046 6.979e-17 6.565e-18
7356.586 6.449e-17 6.814e-18
7358.126 7.295e-17 7.247e-18
7359.666 6.205e-17 6.644e-18
7361.206 7.594e-17 5.994e-18
7362.746 7.105e-17 5.706e-18
7364.286 5.734e-17 6.674e-18
7365.826 7.328e-17 8.301e-18
7367.366 6.918e-17 8.817e-18
7368.906 5.636e-17 8.713e-18
7370.447 7.007e-17 8.077e-18
7371.986 6.549e-17 6.239e-18
7373.527 6.243e-17 5.475e-18
7375.066 5.908e-17 4.958e-18
7376.607 6.245e-17 4.678e-18
7378.146 6.41e-17 4.782e-18
7379.687 7.148e-17 4.981e-18
7381.227 6.709e-17 4.698e-18
7382.767 7.041e-17 4.722e-18
7384.308 6.898e-17 4.835e-18
7385.847 7.322e-17 5.041e-18
7387.388 6.868e-17 5.581e-18
7388.929 7.483e-17 6.508e-18
7390.468 7.07e-17 6.143e-18
7392.009 7.438e-17 6.112e-18
7393.549 6.077e-17 5.837e-18
7395.089 7.017e-17 5.555e-18
7396.629 6.47e-17 5.673e-18
7398.17 5.973e-17 7.046e-18
7399.71 6.547e-17 7.425e-18
7401.25 7.079e-17 7.459e-18
7402.791 7.29e-17 6.899e-18
7404.331 7.383e-17 5.806e-18
7405.871 6.842e-17 5.096e-18
7407.412 7.095e-17 4.903e-18
7408.952 5.656e-17 4.576e-18
7410.493 6.032e-17 4.633e-18
7412.033 6.647e-17 4.76e-18
7413.573 7.041e-17 4.788e-18
7415.114 6.148e-17 4.67e-18
7416.654 6.901e-17 4.726e-18
7418.195 6.749e-17 4.685e-18
7419.735 6.879e-17 4.663e-18
7421.276 6.978e-17 4.636e-18
7422.816 6.071e-17 4.591e-18
7424.357 6.875e-17 4.88e-18
7425.897 7.628e-17 5.322e-18
7427.437 6.281e-17 5.462e-18
7428.978 6.683e-17 5.559e-18
7430.518 5.359e-17 5.326e-18
7432.059 7.938e-17 5.24e-18
7433.6 6.479e-17 5.482e-18
7435.14 6.592e-17 6.047e-18
7436.681 5.827e-17 6.271e-18
7438.221 6.179e-17 6.238e-18
7439.762 5.826e-17 5.783e-18
7441.302 6.592e-17 5.186e-18
7442.843 7.259e-17 4.892e-18
7444.384 5.892e-17 4.638e-18
7445.925 7.229e-17 4.743e-18
7447.466 6.48e-17 4.65e-18
7449.006 6.383e-17 4.73e-18
7450.547 6.168e-17 4.671e-18
7452.088 6.989e-17 4.728e-18
7453.628 6.513e-17 4.72e-18
7455.169 6.908e-17 4.821e-18
7456.709 6.999e-17 4.839e-18
7458.251 7.188e-17 5.01e-18
7459.791 7.021e-17 5.065e-18
7461.332 5.976e-17 5.135e-18
7462.873 5.479e-17 5.278e-18
7464.413 5.804e-17 5.322e-18
7465.955 7.072e-17 5.539e-18
7467.495 7.126e-17 5.778e-18
7469.036 6.81e-17 6.005e-18
7470.577 7.089e-17 6.229e-18
7472.118 5.691e-17 6.081e-18
7473.659 6.03e-17 5.982e-18
7475.199 6.995e-17 6.096e-18
7476.741 7.287e-17 6.189e-18
7478.281 7.342e-17 6.394e-18
7479.822 6.131e-17 6.549e-18
7481.364 6.216e-17 6.359e-18
7482.904 5.953e-17 6.039e-18
7484.445 7.061e-17 5.84e-18
7485.986 6.317e-17 5.355e-18
7487.527 6.57e-17 5.102e-18
7489.068 6.312e-17 5.103e-18
7490.609 6.011e-17 5.135e-18
7492.15 6.796e-17 5.253e-18
7493.691 7.574e-17 5.271e-18
7495.232 5.714e-17 5.041e-18
7496.773 6.841e-17 5.011e-18
7498.314 6.529e-17 5.033e-18
7499.856 6.615e-17 5.063e-18
7501.396 6.352e-17 4.999e-18
7502.938 6.31e-17 4.956e-18
7504.478 6.437e-17 4.999e-18
7506.02 6.189e-17 4.882e-18
7507.561 6.357e-17 4.929e-18
7509.102 6.558e-17 4.974e-18
7510.643 6.478e-17 4.935e-18
7512.184 5.874e-17 5.041e-18
7513.725 7e-17 5.317e-18
7515.266 5.937e-17 5.356e-18
7516.808 6.326e-17 5.485e-18
7518.349 7.363e-17 5.953e-18
7519.89 4.081e-17 6.826e-18
7521.431 5.963e-17 7.551e-18
7522.972 5.079e-17 7.722e-18
7524.514 6.145e-17 7.385e-18
7526.055 6.721e-17 6.723e-18
7527.596 5.935e-17 6.154e-18
7529.138 5.505e-17 5.885e-18
7530.678 5.977e-17 5.737e-18
7532.22 6.006e-17 5.477e-18
7533.761 5.421e-17 5.158e-18
7535.303 5.517e-17 5.074e-18
7536.844 6.685e-17 5.261e-18
7538.385 6.858e-17 5.305e-18
7539.927 5.741e-17 5.2e-18
7541.468 5.22e-17 5.118e-18
7543.01 6.438e-17 5.149e-18
7544.551 5.725e-17 5.032e-18
7546.092 5.725e-17 4.992e-18
7547.634 4.947e-17 4.954e-18
7549.175 6.241e-17 4.972e-18
7550.717 6.06e-17 5.036e-18
7552.258 6.701e-17 5.238e-18
7553.799 6.408e-17 5.439e-18
7555.341 6.78e-17 5.619e-18
7556.882 7.193e-17 5.691e-18
7558.424 6.281e-17 5.637e-18
7559.965 6.549e-17 5.622e-18
7561.507 5.081e-17 5.277e-18
7563.049 5.59e-17 5.264e-18
7564.59 4.947e-17 5.325e-18
7566.132 6.763e-17 5.928e-18
7567.673 7.324e-17 6.737e-18
7569.215 5.481e-17 7.179e-18
7570.757 4.989e-17 7.214e-18
7572.298 5.469e-17 6.934e-18
7573.84 6.436e-17 6.238e-18
7575.381 6.273e-17 5.843e-18
7576.923 5.051e-17 5.117e-18
7578.464 6.517e-17 5.061e-18
7580.006 5.133e-17 4.963e-18
7581.548 7.587e-17 5.966e-18
7583.089 6.694e-17 5.843e-18
7584.631 6.949e-17 5.961e-18
7586.172 6.718e-17 5.999e-18
7587.714 7.241e-17 5.748e-18
7589.256 5.234e-17 5.223e-18
7590.797 5.102e-17 5.522e-18
7592.34 4.02e-17 5.715e-18
7593.881 4.971e-17 7.457e-18
7595.423 4.75e-17 1.004e-17
7596.964 6.865e-17 1.261e-17
7598.506 3.359e-17 1.508e-17
7600.048 5.246e-17 1.59e-17
7601.59 2.164e-17 1.733e-17
7603.132 7.668e-17 2.106e-17
7604.673 6.919e-17 2.11e-17
7606.215 5.893e-17 1.939e-17
7607.758 9.184e-17 2.023e-17
7609.299 6.632e-17 1.758e-17
7610.841 6.167e-17 1.431e-17
7612.382 5.116e-17 1.221e-17
7613.925 8.277e-17 1.172e-17
7615.466 8.407e-17 9.144e-18
7617.008 6.286e-17 7.548e-18
7618.55 6.284e-17 7.038e-18
7620.092 5.402e-17 7.071e-18
7621.634 5.363e-17 8.474e-18
7623.176 4.647e-17 8.993e-18
7624.718 6.301e-17 1.056e-17
7626.26 6.504e-17 1.124e-17
7627.802 7.329e-17 1.113e-17
7629.344 5.561e-17 1.116e-17
7630.885 6.625e-17 1.001e-17
7632.428 5.763e-17 9.538e-18
7633.969 6.724e-17 9.426e-18
7635.512 5.642e-17 8.559e-18
7637.054 6.049e-17 8.32e-18
7638.596 5.924e-17 8.566e-18
7640.138 6.079e-17 8.421e-18
7641.679 6.495e-17 8.191e-18
7643.222 6.674e-17 7.597e-18
7644.764 7.014e-17 7.992e-18
7646.306 6.876e-17 7.579e-18
7647.848 5.899e-17 6.991e-18
7649.39 5.489e-17 7.194e-18
7650.933 6.82e-17 7.055e-18
7652.474 5.899e-17 6.947e-18
7654.017 6.675e-17 6.64e-18
7655.559 5.961e-17 6.403e-18
7657.101 6.598e-17 6.227e-18
7658.643 6.46e-17 6.263e-18
7660.185 7.428e-17 7.121e-18
7661.728 5.204e-17 6.514e-18
7663.27 6.387e-17 6.356e-18
7664.812 5.503e-17 5.608e-18
7666.354 5.977e-17 5.433e-18
7667.896 5.195e-17 5.225e-18
7669.439 7.165e-17 5.507e-18
7670.98 6.103e-17 5.401e-18
7672.523 5.887e-17 5.24e-18
7674.066 5.468e-17 5.087e-18
7675.607 6.432e-17 5.229e-18
7677.15 6.361e-17 5.137e-18
7678.692 6.348e-17 5.214e-18
7680.235 5.625e-17 5.278e-18
7681.777 4.546e-17 4.909e-18
7683.319 6.108e-17 5.384e-18
7684.862 5.525e-17 5.23e-18
7686.404 6.23e-17 5.389e-18
7687.946 5.318e-17 5.258e-18
7689.488 6.274e-17 5.389e-18
7691.031 6.577e-17 5.34e-18
7692.574 6.496e-17 5.425e-18
7694.115 6.231e-17 5.406e-18
7695.658 5.873e-17 5.531e-18
7697.2 5.389e-17 5.584e-18
7698.743 7.41e-17 5.897e-18
7700.286 5.475e-17 5.435e-18
7701.828 6.081e-17 5.169e-18
7703.371 6.187e-17 5.196e-18
7704.912 5.825e-17 4.911e-18
7706.455 4.656e-17 5.368e-18
7707.997 7.339e-17 7.846e-18
7709.54 5.066e-17 9.339e-18
7711.083 4.622e-17 9.714e-18
7712.625 6.161e-17 1.103e-17
7714.168 6.546e-17 1.16e-17
7715.71 7.606e-17 1.108e-17
7717.253 7.531e-17 9.647e-18
7718.796 5.893e-17 8.016e-18
7720.338 6.584e-17 7.172e-18
7721.881 7.498e-17 6.948e-18
7723.423 4.973e-17 6.812e-18
7724.966 5.976e-17 7.041e-18
7726.508 4.982e-17 6.324e-18
7728.051 5.623e-17 5.686e-18
7729.594 5.504e-17 5.106e-18
7731.136 5.821e-17 5.351e-18
7732.679 7.009e-17 5.403e-18
7734.221 5.835e-17 5.514e-18
7735.764 5.753e-17 5.296e-18
7737.307 6.825e-17 5.521e-18
7738.849 6.245e-17 5.062e-18
7740.392 6.256e-17 5.082e-18
7741.935 6.072e-17 5.028e-18
7743.478 6.41e-17 5.315e-18
7745.02 5.321e-17 6.979e-18
7746.563 4.7e-17 9.586e-18
7748.106 5.885e-17 1.061e-17
7749.648 4.481e-17 1.082e-17
7751.191 6.016e-17 1.008e-17
7752.734 6.104e-17 8.066e-18
7754.277 6.682e-17 6.685e-18
7755.82 4.702e-17 6.879e-18
7757.362 6.422e-17 7.374e-18
7758.905 6.969e-17 7.495e-18
7760.448 5.936e-17 7.094e-18
7761.991 6.34e-17 6.147e-18
7763.533 5.906e-17 5.284e-18
7765.076 5.673e-17 4.864e-18
7766.62 4.757e-17 4.798e-18
7768.162 5.851e-17 5.17e-18
7769.705 5.098e-17 5.639e-18
7771.247 5.482e-17 5.928e-18
7772.791 6.058e-17 5.936e-18
7774.334 6.424e-17 5.942e-18
7775.876 5.412e-17 6.078e-18
7777.42 5.091e-17 6.464e-18
7778.962 5.623e-17 6.639e-18
7780.505 6.052e-17 6.636e-18
7782.048 5.231e-17 6.106e-18
7783.591 5.654e-17 5.572e-18
7785.135 4.392e-17 5.303e-18
7786.677 6.101e-17 5.579e-18
7788.22 5.762e-17 6.373e-18
7789.763 4.138e-17 8.163e-18
7791.306 7.8e-17 9.599e-18
7792.85 5.032e-17 9.811e-18
7794.392 9.336e-17 9.488e-18
7795.935 1.441e-16 8.28e-18
7797.478 3.691e-17 5.973e-18
7799.021 6.146e-17 5.354e-18
7800.564 5.403e-17 5.004e-18
7802.107 6.044e-17 5.22e-18
7803.651 4.885e-17 6.095e-18
7805.193 5.029e-17 7.08e-18
7806.737 5.376e-17 7.521e-18
7808.279 6.231e-17 7.602e-18
7809.823 4.826e-17 6.911e-18
7811.366 6.846e-17 6.201e-18
7812.909 4.888e-17 5.687e-18
7814.452 5.589e-17 5.69e-18
7815.995 6.449e-17 7.089e-18
7817.538 3.052e-17 9.255e-18
7819.081 5.271e-17 1.053e-17
7820.625 5.198e-17 1.08e-17
7822.168 5.836e-17 9.945e-18
7823.711 5.706e-17 8.005e-18
7825.254 4.548e-17 6.275e-18
7826.797 5.427e-17 5.521e-18
7828.341 5.386e-17 5.31e-18
7829.884 5.226e-17 5.238e-18
7831.427 5.493e-17 5.22e-18
7832.971 5.015e-17 5.12e-18
7834.513 5.467e-17 5.255e-18
7836.057 4.973e-17 5.86e-18
7837.6 6.445e-17 6.941e-18
7839.143 4.423e-17 7.392e-18
7840.687 6.1e-17 7.51e-18
7842.23 4.18e-17 6.922e-18
7843.773 5.525e-17 6.165e-18
7845.316 5.346e-17 5.936e-18
7846.86 5.788e-17 6.543e-18
7848.404 6.055e-17 8.624e-18
7849.946 4.228e-17 1.031e-17
7851.49 2.706e-17 1.125e-17
7853.033 6.982e-17 1.1e-17
7854.577 8.219e-17 1.08e-17
7856.12 3.499e-17 8.674e-18
7857.663 5.84e-17 7.897e-18
7859.207 6.713e-17 7.969e-18
7860.75 3.895e-17 7.415e-18
7862.294 4.581e-17 6.59e-18
7863.837 4.625e-17 6.417e-18
7865.38 5.326e-17 7.127e-18
7866.924 5.534e-17 8.004e-18
7868.467 5.541e-17 8.092e-18
7870.011 5.482e-17 7.889e-18
7871.554 4.912e-17 7.021e-18
7873.098 4.904e-17 6.802e-18
7874.641 6.384e-17 6.752e-18
7876.185 5.374e-17 7.541e-18
7877.728 7.227e-17 7.83e-18
7879.271 5.765e-17 8.086e-18
7880.815 3.191e-17 7.346e-18
7882.358 6.356e-17 7.178e-18
7883.902 4.68e-17 7.192e-18
7885.446 4.488e-17 8.209e-18
7886.989 4.544e-17 9.002e-18
7888.533 8.594e-17 9.848e-18
7890.076 5.793e-17 8.786e-18
7891.62 5.554e-17 7.888e-18
7893.163 6.126e-17 7.313e-18
7894.707 7.241e-17 6.295e-18
7896.251 5.469e-17 5.539e-18
7897.794 5.679e-17 5.681e-18
7899.338 5.672e-17 5.497e-18
7900.881 6.476e-17 5.379e-18
7902.425 5.638e-17 5.502e-18
7903.969 4.123e-17 5.441e-18
7905.512 5.745e-17 5.682e-18
7907.056 6.02e-17 6.43e-18
7908.599 5.433e-17 8.537e-18
7910.143 6.716e-17 1.043e-17
7911.687 2.232e-17 1.154e-17
7913.231 5.412e-17 1.175e-17
7914.775 5.913e-17 1.015e-17
7916.318 6.179e-17 9.867e-18
7917.862 6.394e-17 9.163e-18
7919.405 4.839e-17 8.658e-18
7920.949 5.663e-17 8.758e-18
7922.493 5.348e-17 7.849e-18
7924.037 5.598e-17 6.57e-18
7925.581 6.225e-17 6.49e-18
7927.124 6.235e-17 7.542e-18
7928.668 4.943e-17 7.944e-18
7930.211 6.464e-17 8.575e-18
7931.755 7.276e-17 8.32e-18
7933.3 7.295e-17 6.883e-18
7934.843 5.724e-17 5.895e-18
7936.387 5.553e-17 5.587e-18
7937.93 5.503e-17 5.336e-18
7939.475 6.18e-17 5.773e-18
7941.019 5.687e-17 5.58e-18
7942.562 6.657e-17 5.585e-18
7944.106 5.647e-17 6.36e-18
7945.65 4.51e-17 6.512e-18
7947.194 6.029e-17 7.039e-18
7948.737 5.849e-17 7.333e-18
7950.281 5.1e-17 6.602e-18
7951.826 5.736e-17 5.997e-18
7953.369 4.903e-17 5.243e-18
7954.913 6.454e-17 5.44e-18
7956.457 5.455e-17 5.012e-18
7958.001 5.441e-17 5.413e-18
7959.545 5.255e-17 7.041e-18
7961.089 6.558e-17 8.946e-18
7962.633 5.942e-17 1.014e-17
7964.176 3.266e-17 1.019e-17
7965.721 5.793e-17 9.41e-18
7967.264 5.363e-17 7.739e-18
7968.809 5.985e-17 6.398e-18
7970.353 5.259e-17 5.634e-18
7971.896 4.709e-17 5.948e-18
7973.441 5.318e-17 6.392e-18
7974.984 6.586e-17 7.414e-18
7976.529 5.558e-17 7.757e-18
7978.073 5.046e-17 8.054e-18
7979.617 5.179e-17 7.042e-18
7981.161 7.199e-17 6.969e-18
7982.704 6.66e-17 5.765e-18
7984.249 6.155e-17 5.563e-18
7985.792 5.662e-17 5.629e-18
7987.337 6.134e-17 6.291e-18
7988.881 5.987e-17 8.263e-18
7990.425 7.068e-17 1.051e-17
7991.969 5.124e-17 1.046e-17
7993.513 4.242e-17 9.82e-18
7995.057 4.971e-17 9.001e-18
7996.602 4.642e-17 6.655e-18
7998.146 5.709e-17 5.804e-18
7999.69 5.584e-17 5.559e-18
8001.234 4.577e-17 5.528e-18
8002.778 5.065e-17 5.183e-18
8004.322 4.988e-17 4.96e-18
8005.866 4.992e-17 5.117e-18
8007.411 5.197e-17 5.209e-18
8008.954 4.569e-17 6.03e-18
8010.499 3.743e-17 6.6e-18
8012.043 5.869e-17 7.063e-18
8013.587 5.144e-17 7.079e-18
8015.132 4.939e-17 6.742e-18
8016.676 4.798e-17 6.4e-18
8018.22 4.612e-17 5.965e-18
8019.764 5.429e-17 6.565e-18
8021.308 3.358e-17 7.613e-18
8022.852 5.395e-17 9.01e-18
8024.397 4.991e-17 9.06e-18
8025.941 4.845e-17 9.393e-18
8027.485 6.183e-17 8.06e-18
8029.03 6.555e-17 6.662e-18
8030.574 4.717e-17 5.567e-18
8032.118 5.593e-17 5.462e-18
8033.663 5.35e-17 5.083e-18
8035.207 4.701e-17 4.937e-18
8036.751 4.736e-17 4.771e-18
8038.295 5.128e-17 4.873e-18
8039.84 6.204e-17 4.983e-18
8041.384 4.932e-17 4.783e-18
8042.928 5.359e-17 4.805e-18
8044.473 5.055e-17 4.885e-18
8046.017 5.72e-17 5.281e-18
8047.562 3.339e-17 5.438e-18
8049.105 5.403e-17 6.074e-18
8050.65 4.967e-17 6.185e-18
8052.195 4.486e-17 5.792e-18
8053.739 4.898e-17 5.619e-18
8055.284 4.608e-17 5.098e-18
8056.827 5.171e-17 5.631e-18
8058.372 6.387e-17 6.728e-18
8059.916 4.837e-17 6.993e-18
8061.461 4.764e-17 7.443e-18
8063.006 5.594e-17 6.837e-18
8064.55 6.22e-17 5.869e-18
8066.095 5.357e-17 5.201e-18
8067.638 4.904e-17 4.755e-18
8069.183 4.377e-17 4.582e-18
8070.728 4.297e-17 4.852e-18
8072.272 5.087e-17 4.748e-18
8073.817 4.544e-17 4.77e-18
8075.361 4.026e-17 4.942e-18
8076.906 5.14e-17 4.888e-18
8078.45 4.636e-17 4.742e-18
8079.995 3.776e-17 4.769e-18
8081.54 5.081e-17 5.105e-18
8083.083 5.476e-17 4.877e-18
8084.628 5.616e-17 5.108e-18
8086.172 4.483e-17 4.7e-18
8087.717 4.278e-17 4.741e-18
8089.262 4.483e-17 5.067e-18
8090.806 5.628e-17 5.389e-18
8092.351 4.412e-17 5.306e-18
8093.895 4.725e-17 5.275e-18
8095.44 4.078e-17 5.09e-18
8096.984 5.316e-17 5.259e-18
8098.529 6.027e-17 5.658e-18
8100.074 5.397e-17 5.994e-18
8101.618 4.486e-17 5.863e-18
8103.163 4.922e-17 5.848e-18
8104.707 4.704e-17 5.233e-18
8106.252 5.928e-17 5.255e-18
8107.797 4.945e-17 4.871e-18
8109.342 5.659e-17 4.87e-18
8110.887 4.861e-17 4.641e-18
8112.431 4.901e-17 5.012e-18
8113.976 5.22e-17 4.816e-18
8115.52 4.786e-17 4.649e-18
8117.065 5.45e-17 4.689e-18
8118.61 5.43e-17 4.684e-18
8120.154 4.295e-17 4.589e-18
8121.699 4.928e-17 4.857e-18
8123.243 5.44e-17 4.736e-18
8124.788 4.835e-17 4.739e-18
8126.333 5.201e-17 4.935e-18
8127.878 4.251e-17 4.56e-18
8129.423 4.835e-17 4.819e-18
8130.967 4.582e-17 4.858e-18
8132.512 5.078e-17 5.04e-18
8134.056 4.321e-17 5.059e-18
8135.602 4.682e-17 5.517e-18
8137.147 6.91e-17 5.601e-18
8138.691 4.358e-17 5.392e-18
8140.236 5.421e-17 5.819e-18
8141.78 4.726e-17 4.942e-18
8143.326 6.249e-17 5.602e-18
8144.87 4.637e-17 5.553e-18
8146.415 5.759e-17 5.354e-18
8147.96 5.639e-17 5.433e-18
8149.504 5.036e-17 5.639e-18
8151.05 5.551e-17 5.075e-18
8152.594 5.123e-17 4.874e-18
8154.139 6.138e-17 5.162e-18
8155.684 5.051e-17 4.94e-18
8157.229 4.515e-17 4.821e-18
8158.774 5.639e-17 5.005e-18
8160.318 4.374e-17 5.156e-18
8161.863 4.396e-17 5.383e-18
8163.408 5.338e-17 5.488e-18
8164.953 5.645e-17 5.054e-18
8166.498 5.126e-17 4.901e-18
8168.043 4.726e-17 5.155e-18
8169.588 6.685e-17 5.54e-18
8171.132 5.773e-17 5.371e-18
8172.678 5.198e-17 5.002e-18
8174.223 5.601e-17 5.129e-18
8175.767 4.645e-17 5.225e-18
8177.313 4.867e-17 5.579e-18
8178.857 5.955e-17 5.845e-18
8180.402 6.029e-17 5.744e-18
8181.947 4.851e-17 5.856e-18
8183.492 7.085e-17 6.424e-18
8185.038 5.87e-17 5.757e-18
8186.582 6.029e-17 5.866e-18
8188.127 5.721e-17 6.06e-18
8189.672 4.925e-17 6.126e-18
8191.217 5.456e-17 6.222e-18
8192.762 4.268e-17 6.415e-18
8194.307 5.525e-17 6.581e-18
8195.852 4.901e-17 6.29e-18
8197.397 5.953e-17 5.841e-18
8198.942 6.749e-17 6.236e-18
8200.487 4.858e-17 5.469e-18
8202.032 4.887e-17 5.416e-18
8203.578 5.754e-17 5.29e-18
8205.122 5.855e-17 5.603e-18
8206.667 4.782e-17 5.434e-18
8208.212 5.499e-17 5.112e-18
8209.757 5.166e-17 5.077e-18
8211.303 5.833e-17 5.356e-18
8212.847 5.925e-17 5.231e-18
8214.393 5.711e-17 5.128e-18
8215.937 6.095e-17 5.281e-18
8217.483 5.496e-17 5.117e-18
8219.027 5.944e-17 5.07e-18
8220.573 5.538e-17 5.118e-18
8222.118 4.831e-17 5.389e-18
8223.663 5.235e-17 5.052e-18
8225.209 4.891e-17 5.364e-18
8226.753 6.322e-17 5.85e-18
8228.299 6.275e-17 6.278e-18
8229.844 5.069e-17 5.911e-18
8231.389 6.836e-17 5.668e-18
8232.934 5.388e-17 5.478e-18
8234.479 6.329e-17 5.363e-18
8236.024 6.425e-17 5.488e-18
8237.569 5.546e-17 5.5e-18
8239.115 6.079e-17 5.386e-18
8240.66 6.04e-17 5.374e-18
8242.205 6.206e-17 5.533e-18
8243.75 6.355e-17 5.641e-18
8245.295 6.37e-17 5.672e-18
8246.841 5.963e-17 5.304e-18
8248.386 5.097e-17 5.346e-18
8249.931 5.718e-17 5.189e-18
8251.477 4.85e-17 4.868e-18
8253.021 7.386e-17 5.481e-18
8254.567 5.5e-17 5.358e-18
8256.112 4.915e-17 4.998e-18
8257.657 6.037e-17 5.062e-18
8259.203 5.542e-17 4.95e-18
8260.748 6.02e-17 5.083e-18
8262.293 5.041e-17 5.19e-18
8263.838 5.901e-17 5.281e-18
8265.384 6.804e-17 5.403e-18
8266.929 5.914e-17 5.43e-18
8268.474 5.303e-17 4.745e-18
8270.02 6.114e-17 5.226e-18
8271.564 4.337e-17 5.183e-18
8273.11 6.296e-17 5.929e-18
8274.655 8.262e-17 7.687e-18
8276.201 5.879e-17 8.103e-18
8277.746 6.425e-17 1.011e-17
8279.291 5.779e-17 1.087e-17
8280.837 6.124e-17 1.034e-17
8282.382 5.065e-17 9.759e-18
8283.927 6.526e-17 9.644e-18
8285.472 6.373e-17 1.053e-17
8287.018 5.033e-17 1.068e-17
8288.564 5.268e-17 1.069e-17
8290.108 5.978e-17 8.832e-18
8291.654 6.176e-17 7.998e-18
8293.199 7.375e-17 8.581e-18
8294.745 7.446e-17 1.102e-17
8296.291 8.446e-17 1.206e-17
8297.835 5.998e-17 1.176e-17
8299.381 8.406e-17 1.076e-17
8300.926 6.462e-17 8.676e-18
8302.472 4.48e-17 6.453e-18
8304.017 5.503e-17 6.241e-18
8305.562 6.362e-17 6.059e-18
8307.108 6.007e-17 7.223e-18
8308.653 6.006e-17 7.462e-18
8310.199 5.34e-17 7.496e-18
8311.744 5.428e-17 6.93e-18
8313.29 4.202e-17 5.744e-18
8314.836 6.885e-17 5.917e-18
8316.38 4.929e-17 5.467e-18
8317.926 5.611e-17 5.74e-18
8319.471 5.326e-17 5.575e-18
8321.017 5.26e-17 5.455e-18
8322.562 5.368e-17 5.226e-18
8324.108 5.754e-17 5.106e-18
8325.654 5.543e-17 5.162e-18
8327.199 4.69e-17 4.864e-18
8328.745 5.22e-17 5.17e-18
8330.29 5.705e-17 5.043e-18
8331.835 5.5e-17 5.141e-18
8333.381 5.264e-17 5.277e-18
8334.926 6.6e-17 5.624e-18
8336.472 5.741e-17 6.007e-18
8338.017 6.289e-17 6.702e-18
8339.563 6.105e-17 1.062e-17
8341.108 4.437e-17 1.456e-17
8342.654 4.531e-17 1.459e-17
8344.2 8.875e-17 1.476e-17
8345.745 8.246e-17 1.279e-17
8347.291 4.921e-17 9.348e-18
8348.836 5.295e-17 8.561e-18
8350.382 4.819e-17 9.513e-18
8351.928 6.264e-17 1.039e-17
8353.473 5.782e-17 9.487e-18
8355.019 4.851e-17 7.513e-18
8356.564 4.156e-17 5.618e-18
8358.11 5.511e-17 5.867e-18
8359.655 5.726e-17 6.17e-18
8361.201 6.153e-17 6.881e-18
8362.747 6.358e-17 7.716e-18
8364.292 2.823e-17 6.745e-18
8365.838 5.171e-17 6.889e-18
8367.383 6.668e-17 5.959e-18
8368.929 5.432e-17 5.515e-18
8370.475 4.867e-17 5.106e-18
8372.02 5.688e-17 5.209e-18
8373.566 4.94e-17 4.843e-18
8375.111 6.022e-17 5.442e-18
8376.657 4.125e-17 5.67e-18
8378.203 7.347e-17 7.684e-18
8379.749 5.585e-17 8.259e-18
8381.295 6.274e-17 8.451e-18
8382.84 4.303e-17 8.187e-18
8384.386 6.112e-17 6.994e-18
8385.931 5.034e-17 5.592e-18
8387.477 5.617e-17 5.34e-18
8389.022 5.307e-17 5.265e-18
8390.568 4.249e-17 4.963e-18
8392.114 6.094e-17 5.592e-18
8393.66 4.606e-17 6.735e-18
8395.206 5.189e-17 1.073e-17
8396.751 7.812e-17 1.292e-17
8398.297 3.532e-17 1.319e-17
8399.843 5.876e-17 1.19e-17
8401.388 5.813e-17 8.855e-18
8402.934 4.513e-17 6.154e-18
8404.48 4.544e-17 5.194e-18
8406.026 5.798e-17 5.193e-18
8407.571 4.908e-17 5.022e-18
8409.117 6.468e-17 5.477e-18
8410.663 3.138e-17 6.901e-18
8412.208 3.802e-17 8.518e-18
8413.755 4.125e-17 8.913e-18
8415.3 5.623e-17 8.77e-18
8416.846 5.513e-17 7.466e-18
8418.392 5.564e-17 5.992e-18
8419.937 5.501e-17 5.428e-18
8421.484 5.39e-17 5.379e-18
8423.029 4.037e-17 5.696e-18
8424.575 5.619e-17 7.616e-18
8426.12 6.224e-17 1.158e-17
8427.666 5.404e-17 1.336e-17
8429.213 4.257e-17 1.356e-17
8430.758 4.042e-17 1.281e-17
8432.304 5.066e-17 9.563e-18
8433.849 7.187e-17 6.691e-18
8435.396 4.883e-17 5.423e-18
8436.942 4.449e-17 4.988e-18
8438.487 5.335e-17 4.933e-18
8440.033 5.27e-17 4.857e-18
8441.579 5.62e-17 4.913e-18
8443.125 5.55e-17 4.918e-18
8444.67 5.771e-17 4.993e-18
8446.216 5.779e-17 5.345e-18
8447.763 5.059e-17 6.887e-18
8449.308 5.251e-17 8.261e-18
8450.854 4.624e-17 8.517e-18
8452.4 5.86e-17 8.37e-18
8453.946 4.54e-17 7.166e-18
8455.492 4.098e-17 5.627e-18
8457.038 5.385e-17 5.238e-18
8458.584 5.957e-17 5.488e-18
8460.129 4.075e-17 7.316e-18
8461.675 5.806e-17 1.061e-17
8463.221 6.584e-17 1.169e-17
8464.767 5.768e-17 1.169e-17
8466.313 5.382e-17 1.052e-17
8467.859 5.434e-17 7.488e-18
8469.405 4.395e-17 5.58e-18
8470.95 5.706e-17 5.21e-18
8472.497 5.57e-17 5.089e-18
8474.043 5.137e-17 5.038e-18
8475.589 5.731e-17 5.02e-18
8477.135 4.512e-17 4.755e-18
8478.68 5.414e-17 4.793e-18
8480.227 4.431e-17 4.658e-18
8481.772 5.674e-17 4.766e-18
8483.318 5.475e-17 4.77e-18
8484.865 5.096e-17 4.682e-18
8486.41 5.663e-17 4.8e-18
8487.957 5.163e-17 5.259e-18
8489.502 5.217e-17 6.581e-18
8491.048 6.033e-17 7.36e-18
8492.594 4.712e-17 7.327e-18
8494.14 5.538e-17 7.149e-18
8495.687 5.465e-17 6.093e-18
8497.232 4.783e-17 5.393e-18
8498.778 6.081e-17 5.823e-18
8500.324 5.343e-17 7.591e-18
8501.87 4.051e-17 9.055e-18
8503.417 7.027e-17 9.369e-18
8504.962 3.618e-17 8.984e-18
8506.509 3.469e-17 7.407e-18
8508.054 4.83e-17 5.565e-18
8509.6 5.675e-17 4.922e-18
8511.146 6.119e-17 4.738e-18
8512.692 5.711e-17 4.688e-18
8514.239 4.553e-17 4.615e-18
8515.784 4.947e-17 4.634e-18
8517.331 5.093e-17 4.723e-18
8518.876 4.315e-17 4.656e-18
8520.423 5.3e-17 4.737e-18
8521.969 4.591e-17 4.659e-18
8523.515 5.181e-17 4.678e-18
8525.061 4.742e-17 4.562e-18
8526.607 4.668e-17 4.529e-18
8528.153 5.608e-17 4.564e-18
8529.699 5.514e-17 4.626e-18
8531.245 5.305e-17 4.621e-18
8532.792 5.204e-17 4.779e-18
8534.337 5.75e-17 5.447e-18
8535.884 6.018e-17 6.005e-18
8537.429 5.278e-17 6.06e-18
8538.976 4.787e-17 5.993e-18
8540.522 5.108e-17 5.472e-18
8542.068 4.19e-17 5.038e-18
8543.614 5.788e-17 5.639e-18
8545.16 4.196e-17 6.656e-18
8546.706 4.725e-17 7.129e-18
8548.252 5.239e-17 7.149e-18
8549.798 5.64e-17 6.668e-18
8551.345 4.939e-17 5.579e-18
8552.891 4.151e-17 4.878e-18
8554.437 5.818e-17 4.851e-18
8555.983 4.765e-17 4.678e-18
8557.529 5.42e-17 4.63e-18
8559.076 5.403e-17 4.656e-18
8560.621 4.903e-17 4.602e-18
8562.168 5.429e-17 4.642e-18
8563.713 5.91e-17 4.745e-18
8565.26 5.163e-17 4.694e-18
8566.806 6.735e-17 4.843e-18
8568.352 5.598e-17 4.823e-18
8569.899 4.505e-17 4.866e-18
8571.444 6.261e-17 5.059e-18
8572.991 5.157e-17 5.085e-18
8574.537 4.936e-17 5.069e-18
8576.083 4.524e-17 4.906e-18
8577.629 4.965e-17 4.925e-18
8579.175 5.017e-17 4.822e-18
8580.722 5.335e-17 4.785e-18
8582.268 5.14e-17 4.82e-18
8583.814 5.012e-17 5.188e-18
8585.36 4.726e-17 5.525e-18
8586.907 4.999e-17 5.612e-18
8588.453 5.817e-17 5.692e-18
8589.999 5.548e-17 5.359e-18
8591.545 5.795e-17 5.251e-18
8593.091 5.694e-17 5.745e-18
8594.638 3.905e-17 5.94e-18
8596.183 6.512e-17 6.167e-18
8597.73 5.178e-17 5.942e-18
8599.277 5.775e-17 5.523e-18
8600.822 5.146e-17 5.16e-18
8602.369 5.374e-17 5.083e-18
8603.915 5e-17 5.185e-18
8605.461 4.199e-17 5.327e-18
8607.008 4.782e-17 5.611e-18
8608.554 6.134e-17 6.088e-18
8610.1 5.252e-17 6.5e-18
8611.646 5.362e-17 7.137e-18
8613.193 2.793e-17 7.657e-18
8614.738 5.922e-17 8.557e-18
8616.285 7.234e-17 9.31e-18
8617.832 4.763e-17 9.905e-18
8619.377 6.385e-17 1.061e-17
8620.924 6.978e-17 1.125e-17
8622.47 4.949e-17 1.172e-17
8624.017 6.012e-17 1.219e-17
8625.563 5.307e-17 1.238e-17
8627.109 4.027e-17 1.249e-17
8628.656 6.739e-17 1.266e-17
8630.201 4.896e-17 1.222e-17
8631.748 3.289e-17 1.212e-17
8633.294 3.079e-17 1.156e-17
8634.841 4.361e-17 1.082e-17
8636.387 5.553e-17 1.029e-17
8637.933 5.798e-17 9.39e-18
8639.48 3.833e-17 8.364e-18
8641.026 4.198e-17 7.532e-18
8642.572 4.494e-17 7.3e-18
8644.119 3.376e-17 7.525e-18
8645.665 5.881e-17 8.829e-18
8647.212 2.177e-17 1.01e-17
8648.757 1.11e-16 1.104e-17
8650.304 7.585e-17 1.174e-17
8651.85 4.587e-17 1.216e-17
8653.397 2.928e-17 1.186e-17
8654.943 4.364e-17 1.233e-17
8656.489 7.841e-17 1.288e-17
8658.036 5.291e-17 1.223e-17
8659.582 5.031e-17 1.226e-17
8661.128 8.278e-17 1.272e-17
8662.674 3.216e-17 1.184e-17
8664.221 1.08e-17 1.148e-17
8665.768 5.589e-17 1.192e-17
8667.314 5.565e-17 1.129e-17
8668.86 3.441e-17 1.057e-17
8670.406 4.373e-17 1.072e-17
8671.953 5.198e-17 1.038e-17
8673.5 3.108e-17 9.609e-18
8675.046 4.461e-17 9.435e-18
8676.592 4.614e-17 9.314e-18
8678.138 2.668e-17 8.684e-18
8679.685 5.129e-17 8.358e-18
8681.231 3.546e-17 8.169e-18
8682.778 5.5e-17 7.925e-18
8684.324 4.867e-17 7.492e-18
8685.87 4.923e-17 7.187e-18
8687.417 5.339e-17 7.086e-18
8688.963 5.699e-17 6.832e-18
8690.51 5.438e-17 6.586e-18
8692.056 4.558e-17 6.4e-18
8693.602 5.028e-17 6.311e-18
8695.149 4.781e-17 6.228e-18
8696.695 3.687e-17 6.179e-18
8698.242 4.285e-17 6.23e-18
8699.788 4.47e-17 6.225e-18
8701.334 4.957e-17 6.114e-18
8702.881 4.177e-17 5.945e-18
8704.427 4.612e-17 6.083e-18
8705.974 4.501e-17 6.06e-18
8707.52 3.925e-17 5.866e-18
8709.067 4.702e-17 5.695e-18
8710.614 4.71e-17 5.434e-18
8712.159 5.419e-17 5.35e-18
8713.706 4.272e-17 5.259e-18
8715.252 4.149e-17 5.24e-18
8716.799 4.848e-17 5.268e-18
8718.345 4.674e-17 5.217e-18
8719.892 5.065e-17 5.323e-18
8721.439 4.646e-17 5.25e-18
8722.985 4.978e-17 5.335e-18
8724.531 4.599e-17 5.354e-18
8726.077 4.473e-17 5.276e-18
8727.624 4.754e-17 5.308e-18
8729.171 4.312e-17 5.2e-18
8730.717 5.246e-17 5.222e-18
8732.264 4.786e-17 5.2e-18
8733.81 4.329e-17 5.239e-18
8735.357 4.956e-17 5.444e-18
8736.903 5.703e-17 5.568e-18
8738.449 4.015e-17 5.532e-18
8739.996 4.926e-17 5.549e-18
8741.542 6.056e-17 5.56e-18
8743.089 4.846e-17 5.375e-18
8744.635 4.926e-17 5.389e-18
8746.182 4.889e-17 5.414e-18
8747.728 5.282e-17 5.478e-18
8749.275 4.464e-17 5.387e-18
8750.822 4.745e-17 5.437e-18
8752.368 5.052e-17 5.621e-18
8753.915 5.477e-17 6.719e-18
8755.461 4.072e-17 8.724e-18
8757.007 6.654e-17 1.191e-17
8758.554 3.151e-17 1.339e-17
8760.1 4.386e-17 1.341e-17
8761.647 2.484e-17 1.314e-17
8763.193 7.358e-17 1.367e-17
8764.74 5.162e-17 1.428e-17
8766.286 3.339e-17 1.434e-17
8767.833 4.975e-17 1.343e-17
8769.38 5.939e-17 1.074e-17
8770.926 4.526e-17 8.273e-18
8772.473 6.454e-17 9.939e-18
8774.019 4.569e-17 1.307e-17
8775.566 4.18e-17 1.472e-17
8777.113 3.999e-17 1.444e-17
8778.659 3.957e-17 1.276e-17
8780.206 3.179e-17 9.248e-18
8781.752 3.324e-17 6.275e-18
8783.299 4.417e-17 5.526e-18
8784.844 4.675e-17 5.696e-18
8786.391 3.802e-17 7.266e-18
8787.938 4.595e-17 8.993e-18
8789.484 4.9e-17 9.296e-18
8791.031 2.995e-17 9.08e-18
8792.577 4.968e-17 7.818e-18
8794.124 4.472e-17 5.953e-18
8795.671 4.649e-17 5.328e-18
8797.217 4.86e-17 5.269e-18
8798.764 3.905e-17 5.186e-18
8800.31 4.613e-17 5.183e-18
8801.857 4.56e-17 5.245e-18
8803.403 3.671e-17 5.122e-18
8804.95 3.86e-17 5.431e-18
8806.497 4.908e-17 5.843e-18
8808.043 4.487e-17 5.976e-18
8809.59 5.514e-17 6.035e-18
8811.136 4.141e-17 5.749e-18
8812.683 4.929e-17 5.354e-18
8814.229 4.639e-17 5.269e-18
8815.776 4.444e-17 5.214e-18
8817.323 4.326e-17 5.275e-18
8818.869 4.068e-17 5.406e-18
8820.416 5.221e-17 6.859e-18
8821.962 2.906e-17 1.204e-17
8823.509 2.569e-17 1.752e-17
8825.056 1.725e-17 1.886e-17
8826.602 2.241e-17 1.878e-17
8828.149 5.49e-17 1.645e-17
8829.695 4.413e-17 1.079e-17
8831.242 3.894e-17 9.69e-18
8832.788 5.055e-17 1.217e-17
8834.335 2.197e-17 1.253e-17
8835.882 3.895e-17 1.219e-17
8837.428 5.434e-17 1.076e-17
8838.975 5.112e-17 7.207e-18
8840.521 5.04e-17 5.685e-18
8842.068 4.902e-17 5.459e-18
8843.615 4.331e-17 5.624e-18
8845.161 4.474e-17 6.803e-18
8846.708 4.679e-17 7.894e-18
8848.254 4.922e-17 7.937e-18
8849.801 3.85e-17 7.768e-18
8851.347 4.811e-17 6.725e-18
8852.895 4.593e-17 5.481e-18
8854.442 3.75e-17 5.049e-18
8855.988 4.454e-17 5.069e-18
8857.535 4.36e-17 5.279e-18
8859.081 4.726e-17 5.612e-18
8860.628 3.853e-17 5.801e-18
8862.175 3.305e-17 6.955e-18
8863.721 5.907e-17 9.499e-18
8865.268 4.016e-17 1.014e-17
8866.814 5.527e-17 1.015e-17
8868.361 4.823e-17 9.319e-18
8869.907 4.487e-17 6.671e-18
8871.454 3.722e-17 5.216e-18
8873.001 4.144e-17 4.858e-18
8874.547 4.444e-17 4.838e-18
8876.094 4.956e-17 4.928e-18
8877.64 3.906e-17 4.898e-18
8879.187 3.398e-17 5.354e-18
8880.733 5.102e-17 9.441e-18
8882.28 3.031e-17 1.424e-17
8883.827 2.864e-17 1.533e-17
8885.374 4.12e-17 1.534e-17
8886.921 5.246e-17 1.342e-17
8888.467 4.682e-17 8.063e-18
8890.014 4.221e-17 5.685e-18
8891.561 3.475e-17 5.264e-18
8893.107 4.045e-17 5.249e-18
8894.654 3.438e-17 5.227e-18
8896.2 4.116e-17 5.373e-18
8897.747 4.58e-17 6.758e-18
8899.293 3.91e-17 9.795e-18
8900.84 4.921e-17 1.076e-17
8902.387 4.11e-17 1.083e-17
8903.933 4.862e-17 9.994e-18
8905.48 3.809e-17 7.169e-18
8907.027 3.749e-17 5.728e-18
8908.574 2.498e-17 5.42e-18
8910.121 3.359e-17 5.253e-18
8911.667 4.949e-17 5.18e-18
8913.214 2.063e-17 5.7e-18
8914.76 5.522e-18 1.069e-17
8916.307 4.171e-17 1.517e-17
8917.853 2.455e-17 1.6e-17
8919.4 1.966e-17 1.581e-17
8920.947 4.333e-17 1.313e-17
8922.493 3.196e-17 7.598e-18
8924.04 2.888e-17 5.849e-18
8925.587 2.957e-17 5.385e-18
8927.134 3.934e-17 5.5e-18
8928.681 5.811e-17 5.764e-18
8930.227 5.003e-17 5.696e-18
8931.774 3.627e-17 5.228e-18
8933.32 3.45e-17 4.982e-18
8934.867 4.503e-17 5.703e-18
8936.413 4.581e-17 5.356e-18
8937.96 4.343e-17 6.216e-18
8939.507 4.176e-17 8.569e-18
8941.053 3.875e-17 9.891e-18
8942.601 4.901e-17 1.1e-17
8944.147 5.905e-17 9.751e-18
8945.694 4.285e-17 6.812e-18
8947.24 3.092e-17 5.212e-18
8948.787 3.518e-17 5.06e-18
8950.334 4.043e-17 5.069e-18
8951.88 3.064e-17 5.639e-18
8953.427 6.461e-17 1.207e-17
8954.973 6.601e-17 1.563e-17
8956.52 3.686e-17 1.406e-17
8958.068 2.537e-17 1.46e-17
8959.614 7.526e-17 1.137e-17
8961.161 3.538e-17 6.982e-18
8962.707 4.096e-17 5.771e-18
8964.254 4.331e-17 5.479e-18
8965.8 3.797e-17 5.159e-18
8967.347 4.99e-17 5.419e-18
8968.894 3.94e-17 5.244e-18
8970.44 4.19e-17 5.354e-18
8971.987 5.213e-17 5.738e-18
8973.534 3.968e-17 5.418e-18
8975.081 3.959e-17 5.382e-18
8976.628 3.524e-17 5.369e-18
8978.174 4.463e-17 5.454e-18
8979.721 4.755e-17 5.847e-18
8981.267 4.461e-17 6.372e-18
8982.814 3.435e-17 6.8e-18
8984.36 5.92e-17 9.095e-18
8985.907 8.588e-18 1.023e-17
8987.455 2.232e-17 1.091e-17
8989.001 1.655e-17 1.06e-17
8990.548 4.828e-17 8.663e-18
8992.094 4.44e-17 6.57e-18
8993.641 5.206e-17 5.685e-18
8995.188 3.887e-17 5.55e-18
8996.734 3.461e-17 9.494e-18
8998.281 4.309e-17 1.141e-17
8999.827 1.122e-17 1.282e-17
9001.375 3.095e-17 1.338e-17
9002.921 3.513e-17 1.001e-17
9004.468 4.861e-17 6.586e-18
9006.015 3.838e-17 5.472e-18
9007.561 5.156e-17 5.368e-18
9009.108 4.232e-17 5.189e-18
9010.654 4.208e-17 5.013e-18
9012.201 4.259e-17 5.004e-18
9013.748 3.856e-17 5.205e-18
9015.295 4.162e-17 5.093e-18
9016.842 5.132e-17 5.904e-18
9018.388 4.683e-17 5.805e-18
9019.935 4.818e-17 5.255e-18
9021.481 4.101e-17 5.212e-18
9023.028 5.08e-17 5.337e-18
9024.575 4.639e-17 5.903e-18
9026.122 5.101e-17 5.863e-18
9027.669 3.562e-17 5.468e-18
9029.215 4.392e-17 5.616e-18
9030.762 4.27e-17 5.314e-18
9032.308 3.822e-17 5.42e-18
9033.855 4.29e-17 7.102e-18
9035.402 4.216e-17 7.221e-18
9036.948 4.478e-17 7.455e-18
9038.495 4.165e-17 7.18e-18
9040.042 3.172e-17 6.298e-18
9041.589 4.401e-17 5.57e-18
9043.136 3.856e-17 5.466e-18
9044.682 3.775e-17 7.208e-18
9046.229 4.297e-17 9.465e-18
9047.775 2.961e-17 9.252e-18
9049.322 2.981e-17 9.792e-18
9050.868 3.767e-17 7.588e-18
9052.416 4.206e-17 6.274e-18
9053.963 5.457e-17 5.43e-18
9055.509 4.099e-17 5.144e-18
9057.056 3.581e-17 5.156e-18
9058.602 4.76e-17 5.474e-18
9060.149 4.35e-17 5.434e-18
9061.696 3.498e-17 5.757e-18
9063.242 4.12e-17 5.579e-18
9064.789 4.199e-17 6.1e-18
9066.336 4.415e-17 5.706e-18
9067.883 3.935e-17 5.828e-18
9069.429 3.897e-17 5.95e-18
9070.976 3.668e-17 6.099e-18
9072.523 4.875e-17 6.103e-18
9074.069 4.021e-17 5.215e-18
9075.616 3.335e-17 5.476e-18
9077.162 3.928e-17 5.275e-18
9078.71 4.186e-17 5.395e-18
9080.256 5.019e-17 6.196e-18
9081.803 4.697e-17 5.801e-18
9083.35 3.564e-17 5.804e-18
9084.896 3.406e-17 5.709e-18
9086.443 4.418e-17 5.618e-18
9087.989 3.202e-17 6.238e-18
9089.536 1.422e-17 6.407e-18
9091.083 3.932e-17 7.013e-18
9092.63 4.368e-17 7.185e-18
9094.177 4.3e-17 6.871e-18
9095.723 4.367e-17 5.935e-18
9097.27 3.763e-17 5.931e-18
9098.816 4.588e-17 8.312e-18
9100.363 2.858e-17 8.591e-18
9101.91 4.038e-17 8.821e-18
9103.456 3.278e-17 7.725e-18
9105.004 2.179e-17 6.204e-18
9106.55 4.541e-17 5.615e-18
9108.097 4.227e-17 5.356e-18
9109.644 4.528e-17 5.391e-18
9111.19 4.586e-17 5.495e-18
9112.737 4.296e-17 5.185e-18
9114.283 4.105e-17 5.136e-18
9115.83 3.655e-17 5.161e-18
9117.376 2.744e-17 5.247e-18
9118.923 4.089e-17 5.505e-18
9120.471 4.125e-17 5.294e-18
9122.017 3.653e-17 5.168e-18
9123.564 2.973e-17 4.736e-18
9125.11 3.585e-17 5.031e-18
9126.657 3.607e-17 5.146e-18
9128.204 4.189e-17 5.605e-18
9129.75 4.571e-17 5.867e-18
9131.297 3.595e-17 5.969e-18
9132.843 3.68e-17 5.751e-18
9134.391 2.63e-17 6.088e-18
9135.937 4.378e-17 6.095e-18
9137.484 5.615e-17 6.354e-18
9139.031 5.488e-17 5.646e-18
9140.577 3.39e-17 5.229e-18
9142.124 4.123e-17 5.487e-18
9143.67 4.544e-17 5.273e-18
9145.217 3.856e-17 5.73e-18
9146.763 4.376e-17 5.993e-18
9148.31 3.128e-17 6.093e-18
9149.857 3.012e-17 6.842e-18
9151.404 3.441e-17 7.602e-18
9152.951 4.448e-17 8.016e-18
9154.497 4.22e-17 7.453e-18
9156.044 4.243e-17 7.33e-18
9157.591 5.43e-17 7.707e-18
9159.137 3.674e-17 7.026e-18
9160.684 6.56e-17 6.999e-18
9162.23 2.829e-17 6.437e-18
9163.777 4.529e-17 6.012e-18
9165.323 3.927e-17 5.437e-18
9166.87 4.206e-17 5.416e-18
9168.418 3.278e-17 5.709e-18
9169.964 3.341e-17 5.724e-18
9171.511 3.355e-17 5.658e-18
9173.057 4.347e-17 6.486e-18
9174.604 3.971e-17 6.456e-18
9176.151 4.567e-17 5.838e-18
9177.697 4.806e-17 6.008e-18
9179.244 4.32e-17 5.768e-18
9180.79 4.313e-17 5.483e-18
9182.337 5.033e-17 6.368e-18
9183.883 4.224e-17 5.43e-18
9185.43 4.311e-17 5.402e-18
9186.977 3.99e-17 5.147e-18
9188.524 3.599e-17 5.313e-18
9190.071 3.913e-17 5.376e-18
9191.617 4.686e-17 5.827e-18
9193.164 3.341e-17 5.677e-18
9194.711 4.299e-17 4.923e-18
9196.257 4.193e-17 5.447e-18
9197.804 4.868e-17 5.514e-18
9199.35 3.828e-17 5.427e-18
9200.897 4.526e-17 5.253e-18
9202.443 3.74e-17 5.28e-18
9203.99 4.205e-17 5.034e-18
9205.537 4.504e-17 5.508e-18
9207.083 3.277e-17 5.617e-18
9208.63 3.578e-17 5.175e-18
9210.176 2.771e-17 5.413e-18
9211.723 2.616e-17 6.147e-18
9213.27 6.15e-17 6.606e-18
9214.817 4.206e-17 6.71e-18
9216.364 2.365e-17 6.812e-18
9217.91 4.472e-17 6.61e-18
9219.457 4.592e-17 6.243e-18
9221.003 4.377e-17 6.795e-18
9222.55 3.654e-17 6.367e-18
9224.097 4.134e-17 7.1e-18
9225.643 3.916e-17 6.527e-18
9227.19 3.79e-17 5.835e-18
9228.736 4.444e-17 5.828e-18
9230.283 2.852e-17 5.29e-18
9231.829 3.372e-17 5.284e-18
9233.376 3.206e-17 5.262e-18
9234.923 3.935e-17 5.485e-18
9236.469 4.054e-17 5.379e-18
9238.016 3.785e-17 5.271e-18
9239.562 3.698e-17 5.123e-18
9241.109 3.615e-17 5.55e-18
9242.656 3.723e-17 5.394e-18
9244.202 3.916e-17 5.837e-18
9245.749 3.775e-17 5.839e-18
9247.295 5.014e-17 6.521e-18
9248.842 3.94e-17 6.54e-18
9250.388 5.031e-17 6.397e-18
9251.935 4.77e-17 5.846e-18
9253.482 3.514e-17 5.608e-18
9255.028 4.029e-17 5.503e-18
9256.575 3.88e-17 5.035e-18
9258.121 2.487e-17 4.976e-18
9259.668 4.098e-17 5.017e-18
9261.214 3.218e-17 5.183e-18
9262.761 3.746e-17 5.509e-18
9264.308 4.239e-17 5.495e-18
9265.854 4.147e-17 5.118e-18
9267.401 3.746e-17 4.933e-18
9268.947 3.759e-17 5.633e-18
9270.494 4.229e-17 5.075e-18
9272.041 2.494e-17 4.898e-18
9273.587 3.341e-17 4.803e-18
9275.134 4.682e-17 5.852e-18
9276.68 3.847e-17 5.363e-18
9278.227 2.892e-17 5.166e-18
9279.773 3.596e-17 5.321e-18
9281.32 4.236e-17 6.041e-18
9282.867 4.785e-17 6.441e-18
9284.413 3.792e-17 6.925e-18
9285.96 4.164e-17 6.947e-18
9287.506 2.981e-17 5.766e-18
9289.053 4.17e-17 6.5e-18
9290.6 3.594e-17 6.757e-18
9292.146 2.356e-17 6.835e-18
9293.693 4.165e-17 7.191e-18
9295.239 4.412e-17 6.862e-18
9296.786 3.707e-17 6.32e-18
9298.332 3.318e-17 5.921e-18
9299.879 2.765e-17 7.478e-18
9301.426 8.126e-17 1.247e-17
9302.972 6.342e-17 1.714e-17
9304.519 4.499e-17 1.918e-17
9306.065 5.182e-17 2.117e-17
9307.612 5.074e-17 2.041e-17
9309.159 8.096e-17 2.627e-17
9310.705 5.275e-17 2.35e-17
9312.252 7.753e-17 2.476e-17
9313.798 3.436e-17 2.326e-17
9315.345 1.988e-17 1.669e-17
9316.891 7.05e-17 1.71e-17
9318.438 4.022e-17 1.607e-17
9319.984 4.152e-17 1.987e-17
9321.53 3.273e-17 2.204e-17
9323.077 5.53e-17 2.458e-17
9324.623 1.759e-17 2.325e-17
9326.17 5.234e-17 1.604e-17
9327.716 4.002e-17 1.024e-17
9329.263 3.853e-17 8.827e-18
9330.81 4.237e-17 9.586e-18
9332.356 2.455e-17 1.077e-17
9333.903 4.804e-17 1.509e-17
9335.449 1.997e-17 1.697e-17
9336.996 5.423e-17 1.606e-17
9338.543 4.906e-17 1.464e-17
9340.088 2.562e-17 1.132e-17
9341.635 9.302e-18 1.113e-17
9343.181 9.905e-17 1.418e-17
9344.728 4.495e-17 1.707e-17
9346.274 6.184e-17 1.181e-17
9347.821 3.742e-17 1.038e-17
9349.368 4.208e-17 8.769e-18
9350.914 2.904e-17 8.265e-18
9352.461 3.512e-17 9.737e-18
9354.007 4.019e-17 1.013e-17
9355.553 4.267e-17 1.083e-17
9357.1 5.278e-17 1.113e-17
9358.646 5.054e-17 9.667e-18
9360.193 5.208e-17 1.007e-17
9361.739 5.624e-17 7.688e-18
9363.286 2.793e-17 7.955e-18
9364.832 5.128e-17 8.762e-18
9366.379 4.336e-17 9.81e-18
9367.926 4.192e-17 1.232e-17
9369.471 5.956e-17 1.774e-17
9371.018 3.757e-17 3.687e-17
9372.564 1.514e-16 3.985e-17
9374.111 5.216e-17 3.561e-17
9375.658 6.795e-17 3.519e-17
9377.204 7.008e-17 2.976e-17
9378.751 1.944e-17 1.856e-17
9380.296 3.884e-17 1.337e-17
9381.843 6.072e-17 1.273e-17
9383.389 2.699e-17 9.49e-18
9384.936 2.779e-17 8.495e-18
9386.483 5.113e-17 7.954e-18
9388.029 4.893e-17 7.597e-18
9389.575 3.999e-17 6.326e-18
9391.121 3.575e-17 5.813e-18
9392.668 3.377e-17 6.09e-18
9394.214 4.597e-17 6.257e-18
9395.761 3.342e-17 6.867e-18
9397.308 4.632e-17 9.759e-18
9398.853 6.286e-17 1.293e-17
9400.4 1.981e-17 1.284e-17
9401.946 3.241e-17 1.21e-17
9403.493 3.024e-17 1.114e-17
9405.04 4.464e-17 7.505e-18
9406.586 2.815e-17 6.705e-18
9408.132 3.317e-17 6.014e-18
9409.678 4.618e-17 6.738e-18
9411.225 3.61e-17 7.172e-18
9412.771 3.947e-17 7.274e-18
9414.318 3.473e-17 9.016e-18
9415.864 5.511e-17 1.349e-17
9417.41 6.62e-17 1.61e-17
9418.957 2.958e-17 1.654e-17
9420.503 2.429e-17 1.486e-17
9422.049 4.171e-17 1.088e-17
9423.596 2.027e-17 7.906e-18
9425.142 1.704e-17 7.649e-18
9426.689 2.92e-17 1.007e-17
9428.235 7.1e-17 1.208e-17
9429.781 5.864e-17 9.788e-18
9431.327 5.484e-17 8.206e-18
9432.874 3.964e-17 7.818e-18
9434.421 3.512e-17 1.269e-17
9435.966 9.786e-17 2.212e-17
9437.513 6.357e-17 3.088e-17
9439.059 -1.301e-17 3.76e-17
9440.606 -6.036e-18 3.419e-17
9442.151 5.885e-17 1.991e-17
9443.698 4.553e-17 1.205e-17
9445.245 2.564e-17 9.479e-18
9446.791 4.457e-17 8.866e-18
9448.337 3.644e-17 8.216e-18
9449.883 4.709e-17 8.109e-18
9451.43 4.026e-17 8.124e-18
9452.976 3.549e-17 1.079e-17
9454.522 6.907e-18 2.2e-17
9456.069 5.608e-17 2.507e-17
9457.615 4.016e-17 2.684e-17
9459.161 7.207e-17 2.493e-17
9460.707 5.039e-17 1.517e-17
9462.254 5.333e-17 1.154e-17
9463.8 1.459e-17 7.582e-18
9465.346 4.268e-17 6.923e-18
9466.893 3.393e-17 7.944e-18
9468.439 3.876e-17 9.021e-18
9469.985 4.725e-17 8.885e-18
9471.532 4.341e-17 1.329e-17
9473.078 2.67e-17 2.363e-17
9474.624 4.321e-17 2.261e-17
9476.17 1.978e-17 2.417e-17
9477.717 5.797e-17 2.384e-17
9479.262 5.22e-17 1.661e-17
9480.809 1.99e-17 1.091e-17
9482.356 5.297e-17 1.18e-17
9483.901 5.436e-17 8.46e-18
9485.448 4.541e-17 6.431e-18
9486.994 2.668e-17 6.733e-18
9488.54 3.811e-17 7.291e-18
9490.087 4.284e-17 7.165e-18
9491.633 2.012e-17 8.023e-18
9493.179 4.546e-17 8.847e-18
9494.725 3.651e-17 9.921e-18
9496.272 2.285e-17 1.126e-17
9497.817 4.799e-18 1.495e-17
9499.364 3.309e-17 2.238e-17
9500.91 7.065e-17 2.759e-17
9502.456 1.493e-18 2.145e-17
9504.003 3.138e-17 1.423e-17
9505.548 2.296e-17 9.148e-18
9507.095 2.616e-17 6.382e-18
9508.64 2.874e-17 5.993e-18
9510.187 2.994e-17 6.134e-18
9511.734 4.118e-17 7.368e-18
9513.279 4.504e-17 8.81e-18
9514.826 4.086e-17 1.355e-17
9516.371 -2.528e-18 1.703e-17
9517.918 4.696e-17 2.074e-17
9519.465 -1.333e-18 2.066e-17
9521.01 3.641e-17 1.71e-17
9522.557 4.494e-17 9.907e-18
9524.102 3.289e-17 8.827e-18
9525.649 3.785e-17 8.768e-18
9527.195 5.881e-17 9.269e-18
9528.741 3.951e-17 8.777e-18
9530.288 3.119e-17 8.073e-18
9531.833 3.669e-17 9.308e-18
9533.38 5.186e-17 9.197e-18
9534.925 3.855e-17 9.11e-18
9536.472 4.866e-17 8.687e-18
9538.018 4.572e-17 8.493e-18
9539.564 3.392e-17 7.346e-18
9541.11 3.753e-17 7.246e-18
9542.656 3.647e-17 8.098e-18
9544.203 3.899e-17 8.042e-18
9545.748 5.496e-17 9.09e-18
9547.295 7.049e-17 1.087e-17
9548.841 2.937e-17 1.418e-17
9550.387 5.81e-17 1.593e-17
9551.933 -1.558e-17 1.976e-17
9553.479 3.803e-17 1.713e-17
9555.025 4.295e-17 1.172e-17
9556.572 4.877e-17 1.05e-17
9558.117 4.451e-17 8.87e-18
9559.664 5.116e-17 8.739e-18
9561.209 3.883e-17 1.009e-17
9562.756 3.72e-17 1.96e-17
9564.301 8.029e-17 2.499e-17
9565.848 1.013e-17 2.466e-17
9567.394 9.023e-17 2.341e-17
9568.939 9.482e-17 1.905e-17
9570.486 3.184e-17 1.063e-17
9572.031 4.289e-17 8.362e-18
9573.578 3.603e-17 6.626e-18
9575.123 4.147e-17 6.454e-18
9576.67 3.052e-17 7.241e-18
9578.216 3.046e-17 6.601e-18
9579.762 3.699e-17 7.418e-18
9581.308 5.6e-17 8.584e-18
9582.853 3.849e-17 8.408e-18
9584.4 4.591e-17 7.005e-18
9585.946 3.312e-17 7.246e-18
9587.492 3.343e-17 7.439e-18
9589.038 4.194e-17 8.637e-18
9590.584 2.529e-17 1.001e-17
9592.13 4.614e-17 8.235e-18
9593.675 3.323e-17 7.967e-18
9595.222 5.053e-17 7.472e-18
9596.768 3.933e-17 7.686e-18
9598.314 3.35e-17 6.803e-18
9599.86 5.348e-17 7.795e-18
9601.405 4.14e-17 7.449e-18
9602.952 3.649e-17 9.537e-18
9604.498 3.929e-17 1.308e-17
9606.043 -1.638e-18 1.533e-17
9607.59 3.535e-17 1.2e-17
9609.135 2.895e-17 1.093e-17
9610.682 3.053e-17 8.015e-18
9612.227 4.264e-17 6.688e-18
9613.773 3.647e-17 7.328e-18
9615.32 2.816e-17 8.752e-18
9616.865 6.924e-17 1.24e-17
9618.411 3.364e-17 1.349e-17
9619.957 5.799e-17 1.408e-17
9621.503 3.209e-17 1.398e-17
9623.048 4.312e-17 1.12e-17
9624.595 3.815e-17 8.999e-18
9626.141 3.967e-17 9.802e-18
9627.686 4.474e-17 8.635e-18
9629.233 5.248e-17 8.049e-18
9630.778 4.877e-17 7.991e-18
9632.324 2.437e-17 7.199e-18
9633.87 3.221e-17 6.674e-18
9635.416 2.458e-17 7.041e-18
9636.962 2.312e-17 8.416e-18
9638.507 4.319e-17 7.219e-18
9640.054 3.934e-17 7.046e-18
9641.599 4.947e-17 8.106e-18
9643.145 4.366e-17 7.879e-18
9644.691 2.73e-17 7.956e-18
9646.237 3.962e-17 8.318e-18
9647.783 2.712e-17 8.085e-18
9649.328 4.663e-17 8.393e-18
9650.874 4.417e-17 8.01e-18
9652.421 3.951e-17 8.316e-18
9653.966 4.047e-17 8.159e-18
9655.512 2.403e-17 7.646e-18
9657.057 2.963e-17 8.613e-18
9658.604 2.607e-17 7.9e-18
9660.149 1.956e-17 9.124e-18
9661.695 3.173e-17 8.811e-18
9663.241 2.067e-17 8.999e-18
9664.786 1.156e-17 1.191e-17
9666.333 3.403e-17 1.175e-17
9667.878 2.994e-17 1.159e-17
9669.424 3.325e-17 1.164e-17
9670.97 2.871e-17 9.413e-18
9672.515 3.693e-17 8.147e-18
9674.062 2.297e-17 8.99e-18
9675.607 3.564e-17 1.024e-17
9677.153 4.946e-17 1.167e-17
9678.698 3.799e-17 1.353e-17
9680.244 2.949e-17 1.531e-17
9681.79 2.986e-17 1.283e-17
9683.336 3.473e-17 1.012e-17
9684.882 4.632e-17 8.256e-18
9686.427 3.372e-17 8.104e-18
9687.973 3.2e-17 9.776e-18
9689.518 4.97e-17 9.26e-18
9691.064 3.749e-17 9.386e-18
9692.61 3.721e-17 7.882e-18
9694.156 5.097e-17 1.062e-17
9695.702 1.184e-17 1.274e-17
9697.247 4.435e-17 1.255e-17
9698.793 4.671e-18 1.337e-17
9700.339 3.876e-17 1.357e-17
9701.884 2.978e-17 9.753e-18
9703.43 4.861e-17 8.959e-18
9704.975 3.077e-17 6.503e-18
9706.521 3.674e-17 8.078e-18
9708.066 5.169e-17 1.019e-17
9709.612 3.366e-17 1.058e-17
9711.159 2.374e-17 1.14e-17
9712.704 3.46e-17 9.677e-18
9714.25 4.164e-17 1.01e-17
9715.795 4.852e-17 1.337e-17
9717.341 2.422e-17 1.439e-17
9718.887 3.856e-17 1.417e-17
9720.432 4.612e-17 1.595e-17
9721.978 2.139e-17 1.124e-17
9723.523 2.899e-17 9.596e-18
9725.069 2.832e-17 8.61e-18
9726.614 2.694e-17 7.741e-18
9728.16 2.529e-17 8.526e-18
9729.706 3.028e-17 7.656e-18
9731.251 2.996e-17 8.818e-18
9732.797 5.788e-17 1.198e-17
9734.342 3.754e-17 1.347e-17
9735.888 4.669e-17 1.333e-17
9737.434 4.618e-17 1.184e-17
9738.979 3.584e-17 1.08e-17
9740.525 2.854e-17 1.025e-17
9742.07 3.377e-17 9.356e-18
9743.616 1.779e-17 1.183e-17
9745.161 2.109e-17 1.041e-17
9746.707 5.752e-17 9.326e-18
9748.253 3.203e-17 7.78e-18
9749.798 2.581e-17 7.362e-18
9751.344 2.579e-17 8.372e-18
9752.888 3.847e-17 8.062e-18
9754.434 3.806e-17 8.722e-18
9755.979 2.615e-17 7.006e-18
9757.525 2.894e-17 7.83e-18
9759.071 2.642e-17 8.268e-18
9760.616 3.514e-17 7.071e-18
9762.162 2.962e-17 7.851e-18
9763.707 3.596e-17 7.578e-18
9765.253 2.809e-17 7.076e-18
9766.799 1.332e-17 7.084e-18
9768.343 2.732e-17 6.905e-18
9769.889 1.878e-17 6.147e-18
9771.434 3.775e-17 7.094e-18
9772.98 3.315e-17 8.406e-18
9774.525 3.596e-17 7.149e-18
9776.071 1.434e-17 6.977e-18
9777.617 3.334e-17 8.205e-18
9779.161 4.487e-17 7.961e-18
9780.707 3.49e-17 7.616e-18
9782.252 3.799e-17 9.513e-18
9783.798 4.271e-17 9.004e-18
9785.344 1.591e-17 9.854e-18
9786.889 1.866e-17 1.432e-17
9788.434 4.456e-17 1.774e-17
9789.979 -2.756e-18 2.05e-17
9791.525 3.844e-17 2.134e-17
9793.07 4.671e-17 1.508e-17
9794.616 2.186e-18 1.144e-17
9796.161 2.882e-17 1.277e-17
9797.706 1.563e-17 1.313e-17
9799.252 5.292e-17 1.34e-17
9800.797 1.296e-17 1.23e-17
9802.342 8.876e-18 8.787e-18
9803.887 2.308e-17 1.01e-17
9805.433 1.612e-17 9.488e-18
9806.979 1.962e-17 9.351e-18
9808.523 2.294e-17 9.732e-18
9810.069 2.698e-17 9.291e-18
9811.614 4.27e-17 1.116e-17
9813.16 2.325e-17 9.592e-18
9814.705 1.958e-17 1.081e-17
9816.25 3.526e-17 9.468e-18
9817.796 2.658e-17 9.026e-18
9819.34 2.856e-17 9.101e-18
9820.886 2.276e-17 8.075e-18
9822.431 9.166e-18 7.33e-18
9823.976 2.132e-17 8.405e-18
9825.522 3.685e-17 8.832e-18
9827.067 4.221e-17 8.759e-18
9828.612 3.009e-18 9.093e-18
9830.157 2.459e-17 7.905e-18
9831.703 2.358e-17 8.445e-18
9833.248 2.423e-17 7.339e-18
9834.793 2.173e-17 7.274e-18
9836.339 2.608e-17 8.208e-18
9837.883 2.08e-17 8.331e-18
9839.429 2.96e-17 7.22e-18
9840.974 1.643e-17 8.052e-18
9842.519 2.057e-17 7.141e-18
9844.065 2.077e-17 1.042e-17
9845.609 8.894e-18 1.222e-17
9847.155 1.765e-17 1.354e-17
9848.7 1.992e-17 1.234e-17
9850.245 2.866e-17 1.132e-17
9851.791 1.42e-17 8.258e-18
9853.335 2.362e-17 8.079e-18
9854.881 2.67e-17 7.668e-18
9856.425 2.55e-17 7.371e-18
9857.971 2.969e-17 7.599e-18
9859.516 3.675e-17 7.946e-18
9861.061 4.538e-17 8.221e-18
9862.607 6.601e-17 8.309e-18
9864.151 8.276e-17 8.263e-18
9865.697 1.72e-16 9.706e-18
9867.241 2.089e-16 1.294e-17
9868.787 1.147e-16 1.964e-17
9870.331 -2.238e-17 2.147e-17
9871.877 -4.342e-17 1.858e-17
9873.422 3.202e-17 1.721e-17
9874.967 1.858e-18 1.015e-17
9876.512 4.079e-17 8.933e-18
9878.057 6.082e-18 7.837e-18
9879.602 1.187e-17 8.522e-18
9881.148 1.606e-17 8.591e-18
9882.692 1.531e-17 8.996e-18
9884.237 2.845e-17 8.816e-18
9885.782 5.184e-17 8.774e-18
9887.327 1.849e-17 8.832e-18
9888.872 1.768e-17 9.271e-18
9890.417 -4.869e-18 1.179e-17
9891.963 4.452e-17 1.47e-17
9893.507 1.592e-17 1.334e-17
9895.052 3.912e-18 1.415e-17
9896.597 5.356e-18 1.31e-17
9898.142 2.624e-17 9.772e-18
9899.688 1.157e-17 8.488e-18
9901.232 2.085e-17 8.363e-18
9902.777 2.007e-17 8.303e-18
9904.322 1.748e-17 8.312e-18
9905.867 3.032e-17 8.41e-18
9907.411 2.585e-17 8.742e-18
9908.957 2.137e-17 1.034e-17
9910.502 3.479e-17 1.656e-17
9912.046 2.489e-17 2.07e-17
9913.592 4.001e-18 2.14e-17
9915.136 6.77e-17 2.086e-17
9916.681 1.881e-17 1.636e-17
9918.227 3.478e-17 1.103e-17
9919.771 3.546e-17 9.312e-18
9921.316 2.091e-17 8.893e-18
9922.861 3.15e-17 8.853e-18
9924.406 3.298e-17 8.915e-18
9925.95 2.52e-17 8.895e-18
9927.495 2.962e-17 9.011e-18
9929.041 3.976e-17 9.288e-18
9930.585 3.057e-17 9.264e-18
9932.13 3.969e-17 9.504e-18
9933.675 4.146e-17 9.659e-18
9935.22 1.506e-17 1.009e-17
9936.764 3.4e-17 1.318e-17
9938.309 4.786e-17 1.93e-17
9939.854 4.039e-17 2.225e-17
9941.399 4.698e-17 2.57e-17
9942.944 5.53e-17 2.973e-17
9944.488 -2.524e-17 2.988e-17
9946.033 -4.002e-17 2.933e-17
9947.578 -3.447e-17 2.681e-17
9949.123 4.352e-17 2.108e-17
9950.668 1.078e-17 1.61e-17
9952.212 4.289e-17 1.893e-17
9953.757 2.822e-17 2.417e-17
9955.301 4.65e-17 2.566e-17
9956.846 -1.462e-17 2.66e-17
9958.392 7.004e-17 2.628e-17
9959.936 6.729e-17 2.268e-17
9961.481 -4.254e-17 2.094e-17
9963.025 -1.003e-17 1.895e-17
9964.57 -9.235e-18 1.418e-17
9966.115 1.623e-17 1.177e-17
9967.659 3.916e-17 1.303e-17
9969.204 3.834e-17 1.576e-17
9970.748 2.3e-17 1.664e-17
9972.294 1.627e-17 1.668e-17
9973.838 5.008e-18 1.577e-17
9975.383 3.446e-17 1.385e-17
9976.928 3.57e-17 1.306e-17
9978.472 1.077e-17 1.263e-17
9980.017 3.861e-17 1.225e-17
9981.561 3.615e-17 1.126e-17
9983.106 2.842e-17 1.06e-17
9984.651 2.535e-17 1.018e-17
9986.195 3.11e-17 1.025e-17
9987.74 2.714e-17 1.019e-17
9989.284 5.271e-17 1.045e-17
9990.829 1.84e-17 1.025e-17
9992.373 1.561e-17 1.029e-17
9993.918 3.677e-17 1.05e-17
9995.463 3.753e-17 1.16e-17
9997.007 3.178e-17 1.321e-17
9998.552 2.887e-17 1.413e-17
10000.096 3.847e-17 1.441e-17
10001.641 2.716e-17 1.371e-17
10003.185 3.53e-17 1.253e-17
10004.73 3.21e-17 1.196e-17
10006.275 2.011e-17 1.28e-17
10007.819 8.871e-18 1.921e-17
10009.363 2.435e-18 3.067e-17
10010.907 2.837e-18 3.562e-17
10012.452 4.577e-17 3.661e-17
10013.997 3.879e-17 3.42e-17
10015.541 -1.928e-17 2.444e-17
10017.086 2.634e-17 1.62e-17
10018.63 3.602e-17 1.427e-17
10020.175 -2.342e-18 1.487e-17
10021.718 8.886e-17 2.028e-17
10023.263 2.5e-17 2.301e-17
10024.808 6.684e-17 2.337e-17
10026.352 5.599e-17 2.253e-17
10027.897 3.675e-18 1.788e-17
10029.441 3.023e-17 1.358e-17
10030.985 2.319e-17 1.227e-17
10032.53 2.293e-17 1.19e-17
10034.074 2.547e-17 1.209e-17
10035.619 3.273e-17 1.227e-17
10037.163 3.375e-17 1.234e-17
10038.707 2.847e-17 1.33e-17
10040.251 4.965e-18 1.565e-17
10041.796 -2.046e-17 1.667e-17
10043.341 8.636e-18 1.708e-17
10044.884 4.28e-17 1.648e-17
10046.429 2.67e-17 1.38e-17
10047.973 2.508e-17 1.212e-17
10049.518 4.345e-17 1.19e-17
10051.062 4.472e-17 1.191e-17
10052.606 1.313e-17 1.169e-17
10054.151 1.862e-17 1.215e-17
10055.695 2.315e-17 1.413e-17
10057.239 1.987e-17 1.855e-17
10058.783 4.553e-17 2.113e-17
10060.328 -2.281e-17 2.163e-17
10061.872 1.74e-17 2.093e-17
10063.416 2.273e-17 1.823e-17
10064.961 2.566e-17 1.65e-17
10066.504 3.483e-17 1.677e-17
10068.049 1.067e-17 1.748e-17
10069.592 1.636e-17 1.729e-17
10071.137 4.289e-17 1.67e-17
10072.682 4.643e-17 1.573e-17
10074.225 2.517e-17 1.422e-17
10075.77 2.76e-17 1.398e-17
10077.313 3.114e-17 1.659e-17
10078.858 2.145e-17 2.593e-17
10080.403 6.092e-17 3.162e-17
10081.946 5.825e-17 3.288e-17
10083.491 1.002e-16 3.184e-17
10085.034 3.574e-17 2.467e-17
10086.579 3.153e-18 1.738e-17
10088.122 4.549e-17 1.5e-17
10089.667 2.711e-17 1.405e-17
10091.211 3.523e-17 1.4e-17
10092.755 1.282e-17 1.405e-17
10094.3 2.056e-17 1.447e-17
10095.843 4.887e-17 1.499e-17
10097.388 1.779e-17 1.512e-17
10098.932 3.311e-18 1.699e-17
10100.475 6.07e-17 2.246e-17
10102.02 6.691e-17 2.489e-17
10103.563 -7.983e-18 2.51e-17
10105.108 3.341e-17 2.397e-17
10106.651 8.657e-17 1.961e-17
10108.196 1.315e-17 1.608e-17
10109.74 3.079e-17 1.515e-17
10111.284 5.182e-17 1.518e-17
10112.828 3.683e-17 1.502e-17
10114.371 3.482e-17 1.515e-17
10115.916 7.613e-18 1.527e-17
10117.46 -8.884e-18 1.565e-17
10119.004 2.805e-17 1.993e-17
10120.548 -4.882e-17 3.081e-17
10122.091 8.575e-17 3.783e-17
10123.636 8.935e-17 3.976e-17
10125.179 5.335e-17 3.807e-17
10126.723 2.381e-17 2.976e-17
10128.268 1.81e-17 2.158e-17
10129.811 2.808e-17 1.834e-17
10131.355 1.926e-17 1.771e-17
10132.899 -2.345e-17 1.739e-17
10134.443 2.691e-17 1.752e-17
10135.986 2.745e-17 1.732e-17
10137.531 4.081e-17 1.722e-17
10139.075 4.314e-17 1.77e-17
10140.618 4.061e-17 1.868e-17
10142.162 4.479e-17 1.966e-17
10143.706 4.26e-17 2.071e-17
10145.25 4.258e-17 2.126e-17
10146.794 2.495e-17 2.145e-17
10148.337 1.547e-17 2.257e-17
10149.882 2.788e-17 2.729e-17
10151.425 -1.025e-17 2.968e-17
10152.969 -2.324e-17 3.04e-17
10154.512 -1.287e-17 2.987e-17
10156.056 5.016e-17 2.717e-17
10157.601 5.359e-17 2.484e-17
10159.144 4.128e-17 2.356e-17
10160.688 5.035e-17 2.356e-17
10162.231 1.501e-18 2.283e-17
10163.775 6.259e-17 2.325e-17
10165.319 -3.007e-18 2.384e-17
10166.863 5.742e-17 2.758e-17
10168.407 8.688e-17 3.807e-17
10169.95 3.031e-17 4.506e-17
10171.494 -4.986e-17 4.71e-17
10173.037 9.245e-17 4.605e-17
10174.581 3.071e-17 3.724e-17
10176.125 5.373e-17 2.859e-17
10177.668 3.299e-17 2.559e-17
10179.212 4.465e-17 2.583e-17
10180.755 2.959e-18 2.648e-17
10182.299 3.377e-17 2.695e-17
10183.844 3.431e-17 2.625e-17
10185.387 1.138e-16 2.832e-17
10186.931 -5.976e-17 3.315e-17
10188.474 4.859e-17 3.694e-17
10190.018 6.031e-17 3.791e-17
10191.561 4.524e-17 3.596e-17
10193.105 6.787e-17 3.061e-17
10194.649 1.624e-17 2.631e-17
10196.192 3.404e-17 2.518e-17
10197.736 1.588e-17 2.481e-17
10199.278 2.3e-17 2.701e-17
10200.822 8.768e-17 3.069e-17
10202.365 6.623e-18 3.203e-17
10203.909 3.198e-17 3.313e-17
10205.453 5.77e-17 3.577e-17
10206.996 5.094e-18 3.972e-17
10208.54 1.827e-17 4.597e-17
10210.083 7.532e-18 4.883e-17
10211.627 2.76e-17 4.725e-17
10213.171 4.731e-17 4.184e-17
10214.714 3.824e-17 3.451e-17
10216.258 6.04e-17 2.949e-17
10217.8 6.408e-17 2.795e-17
10219.344 8.278e-17 2.81e-17
10220.887 7.095e-17 2.993e-17
10222.431 5.311e-17 3.652e-17
10223.975 1.938e-17 4.211e-17
10225.518 -1.413e-18 4.49e-17
10227.061 -1.514e-17 4.555e-17
10228.604 9.534e-17 4.405e-17
10230.148 -2.282e-18 3.989e-17
10231.692 3.241e-17 3.797e-17
10233.234 -4.013e-17 3.444e-17
10234.778 9.528e-18 3.171e-17
10236.321 3.196e-17 3.014e-17
