# SIMPLE = T / Written by IDL: Tue Apr 30 17:08:34 2019
# BITPIX = -32 / IEEE single precision floating point
# NAXIS = 2 / number of data axes
# NAXIS1 = 311 /Number of positions along axis 1
# NAXIS2 = 2835 /Number of positions along axis 2
# EXTEND = T / FITS dataset may contain extensions
# COMMENT FITS (Flexible Image Transport System) format defined in Astronomy and
# COMMENT Astrophysics Supplement Series v44/p363, v44/p371, v73/p359, v73/p365.
# COMMENT Contact the NASA Science Office of Standards and Technology for the
# COMMENT FITS Definition document #100 and other FITS information.
# BZERO = 0 / offset data range to that of unsigned short
# BSCALE = 1 / default scaling factor
# OBJECT = 'ZTF19aamhhiz' / object title
# OBSERVER= 'Lin Yan ' / observer
# IMGTYPE = 'object ' / observation type
# GAIN = 0.72 / e-/adu
# RON = 1.76777 / system noise e-
# DICHROIC= 'D55 ' / Dichroic
# APERTURE= '1.5 ' / aperture (arcsecs)
# TURRET = 'APERTURE' / turret position
# LAMPS = '0000000 ' / lamps: D-FeAr-Hg-Ar-Ne-He-InCand
# BFILTER = 'OPEN ' / filter wheel
# OEXPTIME= 600. / originaly req. exposure time
# EXPTIME = 600.000 / actual exposure time
# UTSHUT = '2019-04-27T10:27:31.685' / UT shutter open
# DATE = '2019-04-27T10:37:53' / file creation date (YYYY-MM-DDThh:mm:ss UTC)
# NAMPSXY = '1 1 ' / number of amplifiers in y x
# CCDSUM = '1 1 ' / binning in x y
# ASEC1 = '[1:460,1:2835]' / amplifier section 1(LL)
# BSEC1 = '[411:460,1:2835]' / bias section 1(LL)
# CSEC1 = '[1:410,1:2835]' / ccd section 1(LL)
# DSEC1 = '[1:410,1:2835]' / data section 1(LL)
# TSEC1 = '[51:410,1:2835]' / trim section 1(LL)
# ROISEC = '[900:1259,565:3399]' / roi section
# DETID = 'CCD44-82_1' / detector ID
# DETNUM = '1 ' / Detector Number
# DETNAM = 'CCD44-82' / detector name
# FPA = 'DBSP_BLUE' / focal plan array
# UTC = '117 10:27:31.8' / <elapsed days> <time-obs>
# UT = '10:27:31.8' / time-obs
# OBSLST = '17:00:33.5' / lst-obs
# RA = '14:15:07.23' / Right Ascencion
# DEC = '+50:38:59.8' / Declination
# HOURANG = 'W02:44:43.3' / Hour angle, TCS format
# HA = '+02:44:43.3' / Hour angle
# AIRMASS = 1.22500 / Airmass
# TELID = '200 ' / telescope ID
# TELFOCUS= '42.85 mm' / focus position
# CASSPA = '102.00 ' / cass ring angle
# PARALLAC= '103.71 ' / parallactic angle
# DHE = 'SDSU Gen III' / controller info
# CCDTEMP = '161.75 ' / detector mount temp
# SOFTVER = '3.4 ' / software version
# HDR_REV = '4.3 ' / gfits version
# GCOMMENT= ' ' / comment
# ANGLE = '27 deg 17 min' / Grating Angle
# GRATING = '600/4000' / //lines/mm & Blaze
# BIAS = 'bias_DBSP_BLUE_11.fits' / bias frame used
# OVERSCAN= -6 / additional overscan offset applied
# FLAT = 'flat_DBSP_BLUE_11_1.5_D55_600_4000.fits' / flatfield frame used
# FLATSECT= '[150:350]' / flatfield collapse section
# SIGCLIP = 15.0000 / LA Cosmic sigclip
# SIGFRAC = 0.0500000 / LA Cosmic sigfrac
# OBJLIM = 0.500000 / LA Cosmic objlim
# NITER = 4 / LA Cosmic niter
# NCOSMICS= 221 / number of cosmics found
# DATE-OBS= '2019-04-27' / UT date of observation (from UTSHUT keyword)
# MJD = 58600.4357833 / MJD corresponding to UTSHUT
# NAVE = 2 / number of frames averaged
# COMBFILE= 'blue0037blue0038' / combined output filename
# DISPLINE = 1480 / column/row along dispersion axis to find trace
# NDISP = 50 / number of columns/rows to sum to find and trace profile
# OPTIMALPROFILE = none / number of columns/rows to sum to find and trace profile
# WIDTH_LOCALPROFILE = 200 / width in pixels of local extraction profile
# X_GLOBPROF = [500,2000] / dispersion pixel range for global profile
# OBJ_APER = -7,7 / object extraction aperture
# SKY_APER = -35,-12,12,35 / sky extraction aperture
# ARCFILE1 = arc_DBSP_BLUE_11_0.5_D55_600_4000_FeAr.fits / arc file used
# END
# header info from red frame:
# SIMPLE = T / Written by IDL: Tue Apr 30 17:50:13 2019
# BITPIX = -32 / IEEE single precision floating point
# NAXIS = 2 / number of data axes
# NAXIS1 = 4107 /Number of positions along axis 1
# NAXIS2 = 401 /Number of positions along axis 2
# EXTEND = T / FITS dataset may contain extensions
# COMMENT FITS (Flexible Image Transport System) format defined in Astronomy and
# COMMENT Astrophysics Supplement Series v44/p363, v44/p371, v73/p359, v73/p365.
# COMMENT Contact the NASA Science Office of Standards and Technology for the
# COMMENT FITS Definition document #100 and other FITS information.
# BZERO = 0 / offset data range to that of unsigned short
# BSCALE = 1 / default scaling factor
# OBJECT = 'ZTF19aamhhiz' / object title
# OBSERVER= 'Lin Yan ' / observer
# IMGTYPE = 'object ' / observation type
# GAIN = 2.8 / e-/adu
# RON = 6.01041 / system noise e-
# DICHROIC= 'D55 ' / Dichroic
# APERTURE= '1.5 ' / aperture (arcsecs)
# TURRET = 'APERTURE' / turret position
# LAMPS = '0000000 ' / lamps: D-FeAr-Hg-Ar-Ne-He-InCand
# RFILTER = 'OPEN ' / filter wheel
# OEXPTIME= 600. / originaly req. exposure time
# EXPTIME = 600.000 / actual exposure time
# UTSHUT = '2019-04-27T10:27:31.297' / UT shutter open
# DATE = '2019-04-27T10:37:54' / file creation date (YYYY-MM-DDThh:mm:ss UTC)
# NAMPSXY = '1 1 ' / number of amplifiers in y x
# CCDSUM = '1 1 ' / binning in x y
# ASEC1 = '[1:4141,1:440]' / amplifier section 1(LL)
# BSEC1 = '[4122:4141,1:440]' / bias section 1(LL)
# CSEC1 = '[1:4121,1:440]' / ccd section 1(LL)
# DSEC1 = '[1:4121,1:440]' / data section 1(LL)
# TSEC1 = '[8:4121,1:440]' / trim section 1(LL)
# ROISEC = '[1:4114,785:1224]' / roi section
# DETID = 'LBNL_4Kx2K_1' / detector ID
# DETNUM = '1 ' / Detector Number
# DETNAM = 'LBNL_4Kx2K' / detector name
# FPA = 'DBSP_RED2' / focal plan array
# UTC = '117 10:27:31.4' / <elapsed days> <time-obs>
# UT = '10:27:31.4' / time-obs
# OBSLST = '17:00:33.1' / lst-obs
# RA = '14:15:07.23' / Right Ascencion
# DEC = '+50:38:59.8' / Declination
# HOURANG = 'W02:44:42.9' / Hour angle, TCS format
# HA = '+02:44:42.9' / Hour angle
# AIRMASS = 1.22500 / Airmass
# TELID = '200 ' / telescope ID
# TELFOCUS= '42.85 mm' / focus position
# CASSPA = '102.00 ' / cass ring angle
# PARALLAC= '103.71 ' / parallactic angle
# DHE = 'SDSU Gen III' / controller info
# CCDTEMP = '130.021 ' / detector mount temp
# SOFTVER = '3.4 ' / software version
# HDR_REV = '4.3 ' / gfits version
# GCOMMENT= ' ' / comment
# ANGLE = '24 deg 38 min' / Grating Angle
# GRATING = '316/7500' / lines/mm & Blaze
# CRVAL1 = 48.519459
# CRVAL2 = 33.313332
# BIAS = 'bias_DBSP_RED2_11.fits' / bias frame used
# OVERSCAN= 1 / additional overscan offset applied
# FLAT = 'flat_DBSP_RED2_11_1.5_D55_316_7500.fits' / flatfield frame used
# FLATSECT= '[80:280]' / flatfield collapse section
# SIGCLIP = 10.0000 / LA Cosmic sigclip
# SIGFRAC = 0.0500000 / LA Cosmic sigfrac
# OBJLIM = 0.500000 / LA Cosmic objlim
# NITER = 4 / LA Cosmic niter
# NCOSMICS= 3285 / number of cosmics found
# DATE-OBS= '2019-04-27' / UT date of observation (from UTSHUT keyword)
# MJD = 58600.4357788 / MJD corresponding to UTSHUT
# NAVE = 2 / number of frames averaged
# COMBFILE= 'red0036red0037' / combined output filename
# DISPLINE = 1350 / column/row along dispersion axis to find trace
# NDISP = 50 / number of columns/rows to sum to find and trace profile
# OPTIMALPROFILE = local / number of columns/rows to sum to find and trace profile
# WIDTH_LOCALPROFILE = 200 / width in pixels of local extraction profile
# X_GLOBPROF = [500,4000] / dispersion pixel range for global profile
# OBJ_APER = -7,7 / object extraction aperture
# SKY_APER = -35,-12,12,35 / sky extraction aperture
# ARCFILE1 = arc_DBSP_RED2_11_0.5_D55_316_7500_ArNeHe.fits / arc file used
# END
# wave_air           flux            err
# (A)  (erg/s/cm2/A)  (erg/s/cm2/A)
3100.203 -4.29e-16 3.48e-16
3101.246 1.302e-16 3.787e-16
3102.289 1.747e-16 3.484e-16
3103.331 -3.101e-16 3.654e-16
3104.374 8.615e-17 3.594e-16
3105.417 -2.1e-16 3.145e-16
3106.46 4.548e-18 3.343e-16
3107.502 -3.206e-16 3.3e-16
3108.546 2.65e-16 3.207e-16
3109.589 9.412e-17 3.195e-16
3110.633 -7.323e-16 3.237e-16
3111.675 -2.804e-16 3.185e-16
3112.719 3.07e-16 2.984e-16
3113.763 -2.203e-16 2.932e-16
3114.806 -3.007e-16 2.974e-16
3115.849 5.383e-16 2.729e-16
3116.893 -2.541e-16 2.936e-16
3117.937 -3.813e-16 2.853e-16
3118.981 -4.019e-16 2.715e-16
3120.024 -3.391e-16 2.737e-16
3121.068 -5.114e-16 2.681e-16
3122.112 1.397e-16 2.519e-16
3123.156 1.403e-16 2.426e-16
3124.2 -4.086e-16 2.545e-16
3125.244 3.373e-16 2.236e-16
3126.289 -2.805e-16 2.409e-16
3127.332 -3.178e-16 2.305e-16
3128.377 2.316e-16 2.334e-16
3129.422 -5.268e-17 2.294e-16
3130.466 2.941e-17 2.21e-16
3131.51 5.083e-16 2.142e-16
3132.555 1.076e-16 2.002e-16
3133.6 2.417e-16 1.971e-16
3134.645 -5.542e-16 2.278e-16
3135.689 2.108e-16 2.078e-16
3136.734 -4.395e-17 2.003e-16
3137.779 -1.74e-16 2.035e-16
3138.824 1.024e-16 1.865e-16
3139.869 -5.973e-16 1.955e-16
3140.914 -8.757e-17 1.901e-16
3141.959 -2.361e-17 1.81e-16
3143.004 1.2e-16 1.883e-16
3144.049 1.068e-16 1.993e-16
3145.095 6.11e-17 1.694e-16
3146.141 7.498e-17 1.749e-16
3147.185 -2.085e-17 1.7e-16
3148.231 -8.163e-17 1.673e-16
3149.277 1.085e-16 1.653e-16
3150.323 -3.892e-16 1.716e-16
3151.368 -2.592e-16 1.636e-16
3152.414 5.415e-17 1.671e-16
3153.46 1.758e-16 1.652e-16
3154.506 3.462e-16 1.648e-16
3155.551 1.529e-17 1.625e-16
3156.598 -4.824e-17 1.472e-16
3157.644 -2.515e-17 1.526e-16
3158.691 -9.71e-17 1.605e-16
3159.736 -5.558e-17 1.523e-16
3160.783 6.005e-17 1.545e-16
3161.829 2.612e-16 1.486e-16
3162.875 1.423e-16 1.459e-16
3163.922 -1.653e-16 1.431e-16
3164.968 -2.363e-16 1.397e-16
3166.015 3.766e-17 1.374e-16
3167.061 1.431e-17 1.348e-16
3168.108 -1.09e-16 1.337e-16
3169.155 -1.322e-16 1.304e-16
3170.202 -8.939e-17 1.352e-16
3171.248 -1.204e-16 1.256e-16
3172.296 1.851e-16 1.271e-16
3173.343 7.303e-17 1.222e-16
3174.39 6.988e-17 1.188e-16
3175.437 -2.195e-16 1.132e-16
3176.484 -1.938e-17 1.076e-16
3177.532 -2.109e-16 1.139e-16
3178.579 6.452e-17 1.079e-16
3179.626 2.798e-16 1.054e-16
3180.674 -7.082e-17 1.027e-16
3181.722 -7.298e-17 9.991e-17
3182.768 -2.141e-16 1.058e-16
3183.816 1.87e-16 1.037e-16
3184.864 -2.128e-16 1.07e-16
3185.912 1.394e-17 1.02e-16
3186.959 -4.74e-17 1.065e-16
3188.008 1.628e-16 1.066e-16
3189.056 6.679e-17 1.101e-16
3190.104 -1.904e-16 1.141e-16
3191.151 -1.276e-16 1.191e-16
3192.2 3.134e-18 1.258e-16
3193.248 -1.401e-16 1.353e-16
3194.297 -1.702e-16 1.258e-16
3195.344 2.065e-16 1.218e-16
3196.393 -1.866e-16 1.314e-16
3197.442 1.209e-16 1.332e-16
3198.489 8.359e-17 1.308e-16
3199.538 6.517e-17 1.35e-16
3200.587 -2.039e-17 1.218e-16
3201.636 4.652e-17 1.242e-16
3202.684 -3.049e-16 1.224e-16
3203.733 5.597e-18 1.142e-16
3204.782 2.373e-17 1.188e-16
3205.831 1.789e-16 1.068e-16
3206.88 -1.626e-16 1.074e-16
3207.929 5.205e-17 1.024e-16
3208.978 1.33e-16 9.684e-17
3210.028 2.592e-17 1.034e-16
3211.076 1.303e-16 9.889e-17
3212.126 1.169e-16 9.271e-17
3213.175 -1.027e-16 9.432e-17
3214.225 -6.031e-17 9.06e-17
3215.274 7.469e-17 9.688e-17
3216.324 1.402e-16 9.683e-17
3217.374 -1.106e-16 9.103e-17
3218.422 3.68e-17 8.914e-17
3219.472 9.513e-17 9.515e-17
3220.522 -1.917e-17 9.031e-17
3221.573 -6.447e-17 9.158e-17
3222.622 -4.569e-17 9.268e-17
3223.672 -7.424e-17 9.148e-17
3224.722 7.65e-17 9.713e-17
3225.773 2.522e-17 9.284e-17
3226.822 9.45e-17 9.263e-17
3227.872 6.755e-17 9.966e-17
3228.923 1.31e-16 8.856e-17
3229.973 5.364e-17 8.618e-17
3231.023 -7.634e-17 8.448e-17
3232.074 -1.482e-16 8.12e-17
3233.124 -3.999e-17 8.098e-17
3234.174 6.393e-18 7.565e-17
3235.225 -2.331e-17 7.891e-17
3236.276 3.544e-17 7.722e-17
3237.327 1.005e-16 8.16e-17
3238.377 -3.595e-17 7.779e-17
3239.428 -5.408e-17 7.51e-17
3240.479 2.33e-17 7.971e-17
3241.531 3.8e-18 7.451e-17
3242.581 3.805e-17 7.56e-17
3243.632 9.308e-18 8.222e-17
3244.684 5.966e-17 8.355e-17
3245.735 -2.414e-17 8.626e-17
3246.786 -5.29e-17 8.795e-17
3247.837 8.018e-17 9.445e-17
3248.889 3.52e-17 8.865e-17
3249.939 -8.483e-17 8.393e-17
3250.991 6.514e-17 8.897e-17
3252.043 -8.858e-17 8.783e-17
3253.095 3.867e-18 8.063e-17
3254.146 3.004e-17 8.205e-17
3255.198 -2.239e-17 7.727e-17
3256.25 -7.045e-17 7.869e-17
3257.302 9.397e-17 8.007e-17
3258.353 -1.341e-17 7.728e-17
3259.405 -8.716e-17 7.495e-17
3260.458 -7.136e-17 7.402e-17
3261.51 -1.129e-16 7.786e-17
3262.561 -3.154e-17 7.753e-17
3263.614 -1.302e-16 7.012e-17
3264.666 -1.141e-16 6.737e-17
3265.718 2.994e-17 7.342e-17
3266.77 2.174e-17 7.371e-17
3267.823 -1.721e-16 7.04e-17
3268.876 1.304e-16 7.697e-17
3269.928 1.129e-16 7.37e-17
3270.981 1.465e-16 7.248e-17
3272.033 -1.626e-17 6.723e-17
3273.086 7.552e-17 6.95e-17
3274.138 -1.777e-16 6.343e-17
3275.192 4.149e-17 6.378e-17
3276.245 -7.479e-19 6.488e-17
3277.298 -3.096e-17 6.248e-17
3278.35 2.594e-17 5.665e-17
3279.403 9.55e-17 5.919e-17
3280.457 -3.345e-17 5.697e-17
3281.509 4.697e-18 5.542e-17
3282.563 5.267e-17 5.818e-17
3283.616 -3.238e-17 5.387e-17
3284.67 9.466e-17 5.645e-17
3285.723 2.05e-17 5.599e-17
3286.776 1.395e-16 5.806e-17
3287.83 -7.497e-17 5.483e-17
3288.884 5.989e-17 5.754e-17
3289.937 -1.174e-16 5.343e-17
3290.991 1.136e-17 5.641e-17
3292.045 -5.448e-18 5.69e-17
3293.099 9.058e-18 6.281e-17
3294.152 -4.724e-18 5.872e-17
3295.206 8.166e-17 6.424e-17
3296.26 -4.452e-17 6.007e-17
3297.314 1.502e-16 6.641e-17
3298.368 9.446e-17 6.363e-17
3299.422 8.319e-18 5.944e-17
3300.477 2.857e-17 6.401e-17
3301.53 -7.712e-18 6.035e-17
3302.585 -5.784e-17 5.838e-17
3303.639 5.177e-17 6.051e-17
3304.694 2.727e-17 5.828e-17
3305.748 4.852e-17 5.821e-17
3306.803 -4.46e-17 5.673e-17
3307.858 -2.421e-17 5.661e-17
3308.911 8.195e-17 6.029e-17
3309.966 -3.335e-17 5.498e-17
3311.021 -5.404e-17 6.091e-17
3312.076 3.06e-17 6.217e-17
3313.131 3.865e-18 6.247e-17
3314.186 1.665e-18 6.174e-17
3315.241 -6.61e-17 6.232e-17
3316.296 6.919e-17 6.108e-17
3317.351 6.057e-17 6.272e-17
3318.406 1.459e-16 6.31e-17
3319.462 -3.049e-17 5.861e-17
3320.517 -1.825e-17 5.926e-17
3321.572 -3.449e-17 5.552e-17
3322.627 1.482e-17 5.456e-17
3323.683 1.243e-16 5.602e-17
3324.738 -1.114e-17 5.343e-17
3325.794 1.547e-17 5.134e-17
3326.849 -2.893e-17 4.886e-17
3327.905 1.29e-17 4.834e-17
3328.96 9.246e-17 4.99e-17
3330.016 6.597e-17 4.929e-17
3331.072 -4.76e-17 4.33e-17
3332.128 -2.57e-17 4.175e-17
3333.184 8.665e-17 4.489e-17
3334.24 -7.797e-17 4.117e-17
3335.296 -8.11e-18 3.989e-17
3336.352 1.141e-16 4.421e-17
3337.408 -2.857e-17 4.016e-17
3338.464 -1.935e-17 4.018e-17
3339.521 -3.703e-17 4.121e-17
3340.576 -2.398e-17 4.148e-17
3341.633 -6.841e-18 4.089e-17
3342.69 9.028e-17 4.302e-17
3343.747 -8.099e-19 4.258e-17
3344.802 1.334e-16 4.707e-17
3345.859 -9.947e-17 4.178e-17
3346.916 2.271e-17 4.22e-17
3347.973 2.398e-17 4.339e-17
3349.029 -4.068e-17 4.203e-17
3350.086 1.605e-17 4.095e-17
3351.143 6.956e-17 4.343e-17
3352.199 -1.606e-17 4.102e-17
3353.257 7.877e-17 4.526e-17
3354.314 1.076e-16 4.65e-17
3355.371 -3.494e-17 4.199e-17
3356.428 7.502e-17 4.565e-17
3357.485 -2.967e-18 4.164e-17
3358.542 -4.115e-17 4.337e-17
3359.6 4.706e-17 4.093e-17
3360.657 -8.523e-17 4.078e-17
3361.714 1.083e-17 3.987e-17
3362.772 4.126e-17 4.194e-17
3363.829 -3.233e-18 4.406e-17
3364.887 8.492e-17 4.674e-17
3365.944 -2.779e-17 4.429e-17
3367.002 5.061e-17 4.816e-17
3368.059 -1.964e-17 4.868e-17
3369.117 -1.017e-16 4.824e-17
3370.175 7.595e-17 5.198e-17
3371.234 -7.296e-17 4.788e-17
3372.291 -1.239e-16 4.529e-17
3373.349 -1.232e-17 4.972e-17
3374.407 -5.856e-18 4.893e-17
3375.466 -8.096e-17 4.628e-17
3376.523 1.167e-16 5.148e-17
3377.582 1.272e-17 4.693e-17
3378.64 2.553e-17 4.871e-17
3379.698 5.151e-18 4.491e-17
3380.756 4.317e-17 4.425e-17
3381.815 6.421e-17 4.702e-17
3382.874 -3.805e-19 4.565e-17
3383.931 4.897e-19 4.325e-17
3384.99 7.174e-17 4.614e-17
3386.049 -7.892e-18 4.13e-17
3387.108 3.878e-17 4.33e-17
3388.166 1.625e-17 4.203e-17
3389.225 2.674e-17 4.235e-17
3390.284 -3.981e-18 4.029e-17
3391.342 -3.748e-17 3.877e-17
3392.401 1.366e-17 3.869e-17
3393.461 5.558e-17 3.876e-17
3394.52 5.877e-17 3.983e-17
3395.578 -7.13e-17 3.442e-17
3396.638 7.708e-17 3.922e-17
3397.697 8.647e-17 4.077e-17
3398.757 -3.697e-17 3.59e-17
3399.815 5.911e-17 3.768e-17
3400.875 -1.102e-17 3.484e-17
3401.935 2.749e-17 3.669e-17
3402.993 5.908e-17 3.72e-17
3404.053 4.026e-17 3.485e-17
3405.113 -9.125e-18 3.437e-17
3406.173 1.249e-17 3.231e-17
3407.232 5.083e-17 3.51e-17
3408.292 2.385e-17 3.233e-17
3409.352 2.9e-17 3.275e-17
3410.412 -3.631e-17 3e-17
3411.471 1.542e-17 3.359e-17
3412.531 4.721e-17 3.491e-17
3413.591 3.784e-17 3.348e-17
3414.651 -2.408e-17 3.205e-17
3415.711 4.655e-17 3.393e-17
3416.771 1.386e-17 3.337e-17
3417.832 2.91e-17 3.58e-17
3418.891 9.436e-18 3.342e-17
3419.952 6.811e-17 3.651e-17
3421.013 1.179e-17 3.465e-17
3422.073 4.093e-17 3.587e-17
3423.133 7.842e-17 3.688e-17
3424.194 -1.528e-17 3.352e-17
3425.254 -1.231e-17 3.526e-17
3426.315 1.095e-17 3.558e-17
3427.375 -3.215e-17 3.524e-17
3428.436 -1.092e-16 3.15e-17
3429.497 9.959e-18 3.465e-17
3430.557 2.656e-17 3.745e-17
3431.618 6.36e-17 3.84e-17
3432.68 -5.008e-17 3.358e-17
3433.741 -2.828e-17 3.444e-17
3434.801 7.426e-17 3.857e-17
3435.862 -3.446e-17 3.681e-17
3436.924 5.162e-17 3.937e-17
3437.985 3.655e-17 4.004e-17
3439.046 -2.098e-17 3.625e-17
3440.107 1.251e-17 3.6e-17
3441.169 -3.22e-17 3.439e-17
3442.229 -5.394e-17 3.418e-17
3443.291 -9.574e-19 3.377e-17
3444.353 1.974e-17 3.707e-17
3445.414 -2.74e-17 3.414e-17
3446.475 6.49e-17 3.896e-17
3447.537 1.481e-17 3.696e-17
3448.599 -1.425e-17 3.559e-17
3449.661 8.003e-18 3.965e-17
3450.722 -9.55e-18 3.932e-17
3451.784 -2.532e-17 3.965e-17
3452.846 -7.144e-17 3.756e-17
3453.907 -5.232e-17 3.821e-17
3454.97 -9.33e-17 3.543e-17
3456.032 6.772e-17 4.073e-17
3457.094 6.683e-17 4.015e-17
3458.156 2.873e-17 3.643e-17
3459.218 -2.238e-17 3.305e-17
3460.28 -7.855e-17 3.06e-17
3461.343 5.2e-17 3.345e-17
3462.405 6.438e-17 3.419e-17
3463.467 9.846e-17 3.395e-17
3464.53 6.231e-18 3.251e-17
3465.592 -3.492e-18 3.151e-17
3466.654 -2.386e-18 3.117e-17
3467.717 4.511e-17 3.111e-17
3468.78 3.749e-17 3.034e-17
3469.842 -3.766e-18 2.893e-17
3470.905 7.298e-18 3.04e-17
3471.968 1.236e-17 3.008e-17
3473.031 -1.351e-17 2.841e-17
3474.093 6.577e-17 2.924e-17
3475.156 7.994e-18 2.915e-17
3476.219 4.638e-17 2.968e-17
3477.282 -5.547e-17 2.658e-17
3478.345 2.765e-17 3.06e-17
3479.408 -5.308e-18 3.127e-17
3480.472 5.3e-17 3.311e-17
3481.534 5.682e-17 3.551e-17
3482.598 9.579e-18 3.384e-17
3483.661 -7.792e-17 3.113e-17
3484.725 4.937e-17 3.432e-17
3485.788 1.451e-17 3.379e-17
3486.851 2.729e-17 3.307e-17
3487.915 5.565e-17 3.389e-17
3488.978 2.282e-18 3.188e-17
3490.042 1.053e-17 3.123e-17
3491.106 3.715e-17 3.28e-17
3492.169 2.742e-17 3.117e-17
3493.232 3.617e-17 3.105e-17
3494.297 1.413e-17 3.022e-17
3495.361 5.257e-18 3.068e-17
3496.425 5.883e-18 3.075e-17
3497.488 4.623e-17 3.067e-17
3498.552 3.072e-17 3.099e-17
3499.616 2.943e-17 3.262e-17
3500.68 5.442e-17 3.19e-17
3501.744 9.37e-17 3.369e-17
3502.809 3.238e-18 3.038e-17
3503.873 3.915e-17 3.247e-17
3504.937 -6.254e-18 3.097e-17
3506.001 -5.599e-18 3.015e-17
3507.066 -1.791e-17 2.959e-17
3508.13 1.333e-17 3.011e-17
3509.194 3.839e-17 3.193e-17
3510.259 1.159e-17 3.016e-17
3511.324 -3.844e-17 2.841e-17
3512.388 1.672e-17 2.951e-17
3513.452 -3.429e-17 2.734e-17
3514.517 1.214e-17 2.853e-17
3515.582 1.448e-18 2.703e-17
3516.646 3.999e-17 2.867e-17
3517.711 7.336e-17 2.962e-17
3518.777 -1.516e-17 2.739e-17
3519.842 -4.955e-17 2.587e-17
3520.906 -3.706e-18 2.59e-17
3521.971 5.935e-17 2.724e-17
3523.037 2.811e-17 2.474e-17
3524.101 1.662e-17 2.45e-17
3525.166 5.717e-17 2.394e-17
3526.232 -1.218e-17 2.208e-17
3527.297 3.012e-17 2.388e-17
3528.362 2.061e-17 2.471e-17
3529.428 2.937e-17 2.433e-17
3530.493 9.244e-19 2.378e-17
3531.558 -1.372e-17 2.377e-17
3532.624 2.214e-17 2.405e-17
3533.689 -1.314e-20 2.442e-17
3534.755 2.555e-17 2.515e-17
3535.82 4.6e-17 2.523e-17
3536.886 8.464e-17 2.64e-17
3537.952 -1.947e-18 2.409e-17
3539.018 -4.532e-17 2.44e-17
3540.083 6.373e-17 2.757e-17
3541.149 -2.751e-18 2.645e-17
3542.215 2.615e-17 2.738e-17
3543.281 1.209e-16 3.059e-17
3544.347 2.412e-17 2.905e-17
3545.413 2.629e-17 2.954e-17
3546.48 1.852e-17 2.903e-17
3547.545 2.145e-17 2.921e-17
3548.611 4.386e-17 2.927e-17
3549.678 3.425e-17 2.862e-17
3550.744 9.161e-18 2.889e-17
3551.81 8.276e-18 2.797e-17
3552.877 2.819e-17 2.906e-17
3553.943 1.708e-17 2.891e-17
3555.009 5.444e-17 2.979e-17
3556.076 -3.863e-19 2.938e-17
3557.143 3.032e-17 3e-17
3558.209 -8.14e-18 2.958e-17
3559.275 4.776e-17 3.063e-17
3560.342 5.988e-17 3.022e-17
3561.409 -2.422e-17 2.801e-17
3562.476 -3.047e-18 2.743e-17
3563.542 7.343e-18 2.863e-17
3564.609 -7.068e-18 2.649e-17
3565.677 -5.566e-17 2.557e-17
3566.743 -2.485e-17 2.432e-17
3567.81 3.058e-17 2.654e-17
3568.877 -8.743e-18 2.371e-17
3569.945 3.176e-17 2.461e-17
3571.011 4.232e-17 2.525e-17
3572.079 6.462e-17 2.606e-17
3573.146 -2.905e-17 2.395e-17
3574.214 2.305e-17 2.458e-17
3575.28 6.739e-17 2.526e-17
3576.348 -1.364e-18 2.388e-17
3577.415 4.671e-17 2.474e-17
3578.482 -1.435e-17 2.248e-17
3579.55 2.909e-18 2.175e-17
3580.618 1.388e-17 2.148e-17
3581.686 1.341e-17 2.106e-17
3582.752 1.347e-17 2.225e-17
3583.82 3.289e-17 2.12e-17
3584.888 2.387e-18 2.052e-17
3585.955 7.502e-18 2.012e-17
3587.023 4.571e-17 2.111e-17
3588.092 4.322e-17 2.141e-17
3589.16 2.742e-17 2.192e-17
3590.227 -4.43e-18 2.05e-17
3591.295 2.996e-17 2.224e-17
3592.363 3.937e-17 2.349e-17
3593.432 3.889e-17 2.288e-17
3594.499 -4.877e-18 2.163e-17
3595.568 -2.589e-17 2.184e-17
3596.636 4.706e-17 2.306e-17
3597.704 1.649e-17 2.324e-17
3598.772 -3.629e-18 2.217e-17
3599.841 4.438e-18 2.252e-17
3600.909 1.695e-17 2.224e-17
3601.977 6.348e-18 2.186e-17
3603.046 4.422e-17 2.265e-17
3604.115 3.412e-17 2.071e-17
3605.183 2.105e-17 2.025e-17
3606.251 6.977e-17 2.13e-17
3607.32 7.509e-17 2.088e-17
3608.389 1.235e-17 1.997e-17
3609.457 4.247e-17 1.968e-17
3610.526 3.48e-17 2.006e-17
3611.595 -7.184e-18 1.926e-17
3612.664 4.58e-17 2.16e-17
3613.732 1.808e-17 2.063e-17
3614.802 1.735e-17 2.107e-17
3615.871 4.872e-18 2.174e-17
3616.939 6.818e-18 2.204e-17
3618.008 3.578e-17 2.207e-17
3619.078 -1.222e-17 2.003e-17
3620.147 4.735e-18 2.081e-17
3621.216 3.318e-17 2.2e-17
3622.285 1.067e-17 2.203e-17
3623.355 3.43e-17 2.305e-17
3624.424 3.516e-18 2.284e-17
3625.493 -1.834e-17 2.314e-17
3626.563 1.339e-17 2.397e-17
3627.632 1.742e-17 2.465e-17
3628.701 1.381e-17 2.467e-17
3629.771 -2.794e-18 2.39e-17
3630.841 4.731e-17 2.392e-17
3631.911 2.764e-17 2.375e-17
3632.98 1.344e-17 2.315e-17
3634.05 -3.249e-17 2.285e-17
3635.12 1.39e-17 2.396e-17
3636.19 -8.181e-18 2.417e-17
3637.259 6.142e-18 2.435e-17
3638.329 -1.386e-17 2.395e-17
3639.399 2.144e-17 2.492e-17
3640.468 2.136e-17 2.516e-17
3641.539 9.926e-18 2.533e-17
3642.609 -3.378e-17 2.412e-17
3643.679 2.789e-17 2.465e-17
3644.749 5.425e-17 2.578e-17
3645.819 1.462e-17 2.487e-17
3646.89 1.772e-17 2.426e-17
3647.959 7.474e-18 2.437e-17
3649.03 3.854e-18 2.55e-17
3650.1 3.771e-17 2.743e-17
3651.171 4.533e-17 2.839e-17
3652.241 2.576e-17 2.684e-17
3653.311 -6.743e-18 2.579e-17
3654.382 1.113e-17 2.622e-17
3655.453 4.62e-17 2.721e-17
3656.523 5.094e-17 2.653e-17
3657.594 -2.908e-17 2.427e-17
3658.665 2.11e-18 2.491e-17
3659.735 1.745e-19 2.496e-17
3660.806 -3.343e-19 2.484e-17
3661.877 6.629e-17 2.579e-17
3662.948 6.76e-18 2.489e-17
3664.018 -7.173e-18 2.401e-17
3665.089 1.114e-17 2.415e-17
3666.16 6.337e-17 2.449e-17
3667.232 2.017e-17 2.329e-17
3668.302 3.707e-17 2.273e-17
3669.373 1.899e-17 2.111e-17
3670.445 4.292e-17 2.204e-17
3671.515 4.715e-17 2.217e-17
3672.586 -1.473e-18 2.149e-17
3673.658 7.651e-17 2.265e-17
3674.73 1.568e-17 2.123e-17
3675.8 2.462e-17 2.113e-17
3676.872 -1.212e-17 2.027e-17
3677.943 3.119e-17 1.99e-17
3679.014 -2.874e-19 1.915e-17
3680.086 4.109e-17 1.974e-17
3681.158 -8.988e-18 1.806e-17
3682.23 3.162e-17 1.947e-17
3683.3 3.692e-17 1.973e-17
3684.372 1.055e-17 1.915e-17
3685.444 3.17e-17 1.946e-17
3686.516 1.512e-17 1.883e-17
3687.587 3.862e-18 1.814e-17
3688.659 1.543e-17 1.826e-17
3689.732 2.865e-17 1.917e-17
3690.803 5.764e-18 1.901e-17
3691.875 1.442e-17 2.027e-17
3692.947 2.898e-17 2.035e-17
3694.019 3.195e-17 2.006e-17
3695.091 2.356e-17 1.95e-17
3696.163 8.843e-18 1.928e-17
3697.235 2.292e-17 2.04e-17
3698.307 1.014e-17 2.103e-17
3699.379 -8.861e-18 2.126e-17
3700.452 3.891e-17 2.224e-17
3701.524 3.938e-17 2.156e-17
3702.596 -4.134e-19 2.142e-17
3703.669 1.248e-17 2.092e-17
3704.741 4.633e-17 2.115e-17
3705.814 2.121e-17 1.995e-17
3706.886 8.055e-18 1.96e-17
3707.959 3.21e-17 2.012e-17
3709.031 9.849e-18 1.977e-17
3710.103 -4.377e-20 1.955e-17
3711.176 -9.507e-18 2.06e-17
3712.249 3.129e-18 2.067e-17
3713.322 4.405e-17 2.218e-17
3714.394 1.668e-17 2.234e-17
3715.467 5.381e-17 2.27e-17
3716.54 -2.403e-17 2.05e-17
3717.612 1.049e-17 2.139e-17
3718.686 -1.312e-17 1.953e-17
3719.759 1.149e-17 1.899e-17
3720.832 -2.696e-18 1.81e-17
3721.904 4.803e-18 1.834e-17
3722.978 6.355e-17 2.066e-17
3724.051 1.988e-17 2.066e-17
3725.125 1.467e-17 2.121e-17
3726.197 1.244e-17 2.162e-17
3727.27 -1.999e-17 2.08e-17
3728.344 -9.368e-18 2.14e-17
3729.417 3.208e-17 2.261e-17
3730.49 4.37e-17 2.255e-17
3731.564 1.613e-17 2.122e-17
3732.637 -6.957e-18 2.057e-17
3733.71 8.479e-18 2.026e-17
3734.784 -5.987e-19 1.931e-17
3735.858 3.637e-17 1.968e-17
3736.931 8.636e-18 1.865e-17
3738.004 2.12e-17 1.986e-17
3739.078 3.255e-17 2.136e-17
3740.152 2.914e-17 2.227e-17
3741.225 2.17e-17 2.257e-17
3742.299 2.868e-17 2.205e-17
3743.373 1.293e-17 2.102e-17
3744.447 1.412e-17 2.032e-17
3745.521 1.171e-17 1.98e-17
3746.595 3.248e-17 1.919e-17
3747.669 -2.82e-17 1.717e-17
3748.742 1.589e-17 1.8e-17
3749.817 1.14e-17 1.796e-17
3750.891 4.235e-17 1.855e-17
3751.965 1.482e-18 1.826e-17
3753.039 -3.646e-19 1.957e-17
3754.113 1.77e-17 2.001e-17
3755.188 3.39e-17 2.125e-17
3756.261 2.695e-17 2.025e-17
3757.336 4.662e-17 2.031e-17
3758.41 3.84e-17 1.911e-17
3759.485 -2.664e-17 1.732e-17
3760.558 -1.214e-17 1.771e-17
3761.633 6.21e-18 1.755e-17
3762.708 1.385e-17 1.811e-17
3763.782 2.481e-17 1.859e-17
3764.856 4.878e-17 1.86e-17
3765.931 2.802e-17 1.788e-17
3767.006 4.312e-17 1.849e-17
3768.08 3.27e-17 1.801e-17
3769.155 2.927e-17 1.78e-17
3770.23 -8.312e-18 1.647e-17
3771.305 4.357e-17 1.81e-17
3772.379 2.635e-17 1.815e-17
3773.454 5.379e-17 1.942e-17
3774.529 5.129e-17 1.913e-17
3775.604 1.044e-17 1.859e-17
3776.679 1.407e-18 1.841e-17
3777.754 3.113e-17 1.918e-17
3778.829 2.915e-17 1.894e-17
3779.904 4.173e-17 1.912e-17
3780.979 3.156e-17 1.871e-17
3782.054 2.37e-17 1.842e-17
3783.129 1.699e-17 1.875e-17
3784.204 2.378e-17 1.89e-17
3785.28 1.881e-17 1.867e-17
3786.355 6.889e-18 1.767e-17
3787.43 3.505e-17 1.759e-17
3788.505 1.608e-17 1.698e-17
3789.581 9.131e-18 1.676e-17
3790.657 3.16e-17 1.744e-17
3791.732 5.138e-17 1.787e-17
3792.807 2.462e-17 1.795e-17
3793.883 9.596e-18 1.722e-17
3794.958 7.963e-18 1.697e-17
3796.034 -5.361e-18 1.585e-17
3797.11 3.14e-18 1.629e-17
3798.186 1.926e-17 1.623e-17
3799.261 3.206e-17 1.662e-17
3800.337 8.75e-18 1.601e-17
3801.413 1.293e-17 1.677e-17
3802.488 3.877e-17 1.837e-17
3803.564 1.539e-19 1.73e-17
3804.64 2.737e-17 1.816e-17
3805.716 1.077e-17 1.768e-17
3806.791 2.351e-17 1.722e-17
3807.868 3.529e-17 1.755e-17
3808.944 4.698e-17 1.809e-17
3810.019 2.031e-17 1.764e-17
3811.095 2.654e-18 1.713e-17
3812.172 9.657e-18 1.795e-17
3813.248 1.847e-17 1.763e-17
3814.324 1.889e-17 1.701e-17
3815.4 7.564e-18 1.644e-17
3816.477 3.729e-17 1.707e-17
3817.553 -4.071e-18 1.634e-17
3818.629 2.867e-17 1.68e-17
3819.706 3.653e-17 1.636e-17
3820.782 4.008e-18 1.503e-17
3821.858 1.686e-17 1.585e-17
3822.935 4.554e-17 1.667e-17
3824.011 -1.071e-17 1.499e-17
3825.088 4.361e-17 1.519e-17
3826.164 4.406e-17 1.567e-17
3827.241 1.112e-17 1.487e-17
3828.318 1.719e-17 1.497e-17
3829.394 3.131e-17 1.598e-17
3830.471 -5.489e-19 1.553e-17
3831.548 3.423e-17 1.693e-17
3832.625 -8.724e-18 1.562e-17
3833.701 5.154e-17 1.661e-17
3834.778 1.01e-17 1.566e-17
3835.855 3.229e-17 1.585e-17
3836.931 1.422e-17 1.568e-17
3838.008 3.781e-17 1.597e-17
3839.086 2.541e-17 1.548e-17
3840.163 3.64e-17 1.546e-17
3841.239 1.853e-17 1.538e-17
3842.317 2.582e-17 1.61e-17
3843.394 1.235e-17 1.643e-17
3844.471 2.436e-17 1.684e-17
3845.548 8.605e-18 1.642e-17
3846.625 3.416e-17 1.719e-17
3847.703 3.302e-17 1.721e-17
3848.779 2.821e-17 1.669e-17
3849.857 9.198e-18 1.61e-17
3850.935 2.33e-17 1.619e-17
3852.012 1.93e-17 1.649e-17
3853.089 2.3e-17 1.658e-17
3854.167 3.861e-17 1.604e-17
3855.244 4.575e-17 1.588e-17
3856.321 3.214e-17 1.574e-17
3857.399 2.599e-17 1.545e-17
3858.477 3.003e-17 1.51e-17
3859.555 5.087e-17 1.5e-17
3860.632 2.484e-17 1.474e-17
3861.71 2.777e-17 1.499e-17
3862.788 1.904e-17 1.555e-17
3863.865 4.295e-17 1.65e-17
3864.943 1.856e-17 1.627e-17
3866.021 2.539e-17 1.615e-17
3867.099 2.209e-17 1.621e-17
3868.176 3.621e-17 1.616e-17
3869.254 2.759e-17 1.557e-17
3870.332 3.889e-17 1.551e-17
3871.411 2.239e-17 1.46e-17
3872.488 1.019e-17 1.42e-17
3873.566 2.126e-17 1.494e-17
3874.645 1.022e-17 1.509e-17
3875.722 1.572e-17 1.57e-17
3876.8 1.092e-17 1.53e-17
3877.879 3.56e-17 1.539e-17
3878.957 3.738e-17 1.482e-17
3880.035 2.067e-17 1.465e-17
3881.113 4.501e-17 1.478e-17
3882.192 -2.102e-19 1.363e-17
3883.269 1.431e-17 1.422e-17
3884.348 3.363e-17 1.465e-17
3885.427 2.12e-17 1.429e-17
3886.505 2.084e-17 1.405e-17
3887.583 2.755e-17 1.387e-17
3888.662 2.352e-17 1.411e-17
3889.741 2.188e-17 1.42e-17
3890.818 3.298e-17 1.463e-17
3891.897 4.434e-17 1.53e-17
3892.976 4.843e-17 1.54e-17
3894.055 1.874e-17 1.489e-17
3895.133 3.131e-17 1.543e-17
3896.212 4.75e-19 1.488e-17
3897.291 6.101e-17 1.575e-17
3898.369 1.711e-17 1.562e-17
3899.448 2.588e-17 1.526e-17
3900.527 3.795e-17 1.594e-17
3901.606 4.095e-17 1.577e-17
3902.684 4.922e-18 1.47e-17
3903.764 -4.384e-18 1.476e-17
3904.843 3.079e-17 1.519e-17
3905.922 2.843e-17 1.571e-17
3907.0 4.214e-17 1.601e-17
3908.08 1.988e-17 1.602e-17
3909.159 5.841e-17 1.695e-17
3910.237 3.632e-17 1.679e-17
3911.317 1.28e-17 1.64e-17
3912.396 1.997e-17 1.676e-17
3913.476 1.605e-17 1.646e-17
3914.554 1.377e-17 1.627e-17
3915.634 2.599e-17 1.61e-17
3916.713 -2.308e-18 1.568e-17
3917.792 5.921e-17 1.638e-17
3918.872 1.734e-17 1.522e-17
3919.951 1.367e-17 1.427e-17
3921.031 1.345e-17 1.455e-17
3922.11 2.14e-17 1.402e-17
3923.189 2.108e-17 1.414e-17
3924.269 1.674e-17 1.413e-17
3925.348 1.606e-17 1.415e-17
3926.428 3.563e-17 1.397e-17
3927.508 1.23e-17 1.328e-17
3928.588 1.901e-17 1.275e-17
3929.666 -1.434e-18 1.196e-17
3930.746 2.313e-17 1.199e-17
3931.826 1.224e-17 1.135e-17
3932.905 2.711e-17 1.146e-17
3933.985 2.177e-17 1.104e-17
3935.066 7.839e-18 1.059e-17
3936.146 1.805e-17 1.143e-17
3937.225 2.6e-17 1.196e-17
3938.305 2.236e-17 1.245e-17
3939.385 1.973e-17 1.281e-17
3940.465 2.965e-17 1.414e-17
3941.545 3.716e-17 1.425e-17
3942.625 1.317e-17 1.414e-17
3943.705 2.343e-17 1.43e-17
3944.785 3.106e-17 1.482e-17
3945.865 3.173e-17 1.501e-17
3946.945 1.852e-17 1.511e-17
3948.026 6.633e-18 1.489e-17
3949.105 4.487e-17 1.574e-17
3950.186 4.907e-17 1.599e-17
3951.266 2.522e-17 1.545e-17
3952.346 3.103e-17 1.548e-17
3953.426 1.99e-17 1.511e-17
3954.507 2.842e-17 1.561e-17
3955.588 3.679e-17 1.518e-17
3956.667 2.844e-17 1.514e-17
3957.748 -6.577e-19 1.451e-17
3958.829 2.831e-17 1.478e-17
3959.908 3.842e-17 1.524e-17
3960.989 1.805e-17 1.475e-17
3962.07 2.686e-17 1.423e-17
3963.151 3.251e-17 1.377e-17
3964.231 2.976e-17 1.299e-17
3965.312 1.596e-17 1.237e-17
3966.392 1.34e-17 1.158e-17
3967.472 2.694e-17 1.141e-17
3968.553 2.254e-17 1.068e-17
3969.634 1.772e-17 1.081e-17
3970.715 1.715e-17 1.097e-17
3971.795 2.606e-17 1.151e-17
3972.877 9.731e-18 1.204e-17
3973.958 1.253e-17 1.267e-17
3975.038 2.596e-17 1.331e-17
3976.119 1.72e-17 1.367e-17
3977.2 3.493e-17 1.446e-17
3978.281 3.609e-17 1.457e-17
3979.362 2.12e-17 1.477e-17
3980.443 1.363e-17 1.489e-17
3981.524 1.104e-17 1.503e-17
3982.606 3.922e-17 1.531e-17
3983.686 2.808e-17 1.498e-17
3984.767 2.713e-17 1.518e-17
3985.849 3.485e-17 1.543e-17
3986.929 3.01e-17 1.543e-17
3988.011 6.051e-17 1.569e-17
3989.092 7.772e-18 1.532e-17
3990.174 1.545e-17 1.569e-17
3991.254 2.589e-17 1.567e-17
3992.336 1.722e-17 1.543e-17
3993.418 1.643e-17 1.582e-17
3994.498 4.655e-18 1.542e-17
3995.58 -1.103e-17 1.547e-17
3996.662 4.49e-17 1.617e-17
3997.743 3.333e-17 1.566e-17
3998.824 1.781e-17 1.555e-17
3999.906 9.569e-18 1.581e-17
4000.988 2.637e-17 1.627e-17
4002.068 2.56e-17 1.615e-17
4003.15 1.546e-17 1.606e-17
4004.232 1.463e-17 1.595e-17
4005.314 4.671e-17 1.63e-17
4006.395 2.47e-17 1.556e-17
4007.477 5.801e-17 1.599e-17
4008.559 1.532e-17 1.597e-17
4009.64 1.742e-17 1.645e-17
4010.722 2.229e-17 1.638e-17
4011.804 2.633e-17 1.675e-17
4012.886 -1.013e-19 1.601e-17
4013.967 2.55e-17 1.647e-17
4015.05 5.458e-17 1.682e-17
4016.132 3.394e-17 1.612e-17
4017.213 4.33e-17 1.624e-17
4018.295 3.029e-17 1.629e-17
4019.377 6.107e-18 1.621e-17
4020.46 1.018e-17 1.632e-17
4021.541 2.471e-17 1.651e-17
4022.623 1.518e-17 1.599e-17
4023.706 1.841e-17 1.62e-17
4024.787 3.126e-17 1.627e-17
4025.87 3.628e-17 1.639e-17
4026.952 9.412e-18 1.58e-17
4028.035 4.389e-17 1.618e-17
4029.116 1.375e-17 1.574e-17
4030.199 3.378e-17 1.597e-17
4031.281 -7.883e-18 1.499e-17
4032.364 6.598e-18 1.481e-17
4033.445 4.397e-17 1.531e-17
4034.528 -3.102e-18 1.44e-17
4035.611 2.423e-17 1.531e-17
4036.692 1.51e-17 1.554e-17
4037.775 5.015e-17 1.616e-17
4038.858 5.108e-17 1.62e-17
4039.94 4.899e-17 1.647e-17
4041.022 2.262e-17 1.61e-17
4042.105 5.63e-18 1.567e-17
4043.188 2.197e-17 1.605e-17
4044.27 3.806e-17 1.632e-17
4045.353 4.079e-17 1.736e-17
4046.435 1.719e-17 1.857e-17
4047.518 3.056e-17 1.954e-17
4048.6 3.426e-17 1.923e-17
4049.683 2.735e-17 1.78e-17
4050.766 9.407e-18 1.637e-17
4051.848 2.916e-17 1.644e-17
4052.931 1.619e-17 1.545e-17
4054.014 2.551e-17 1.572e-17
4055.098 2.649e-17 1.536e-17
4056.18 -2.015e-18 1.487e-17
4057.263 3.173e-17 1.507e-17
4058.346 2.144e-17 1.504e-17
4059.428 4.046e-17 1.56e-17
4060.511 4.116e-17 1.578e-17
4061.595 2.11e-17 1.505e-17
4062.678 1.586e-17 1.488e-17
4063.76 3.798e-17 1.522e-17
4064.844 1.661e-17 1.489e-17
4065.927 3.018e-17 1.523e-17
4067.009 4.095e-17 1.542e-17
4068.093 2.408e-17 1.528e-17
4069.176 1.162e-17 1.524e-17
4070.26 1.835e-17 1.536e-17
4071.342 1.828e-17 1.504e-17
4072.426 3.346e-17 1.482e-17
4073.509 4.399e-17 1.5e-17
4074.592 2.902e-17 1.508e-17
4075.675 5.141e-17 1.569e-17
4076.759 3.348e-17 1.547e-17
4077.842 2.583e-17 1.52e-17
4078.925 3.19e-17 1.525e-17
4080.009 4.814e-17 1.556e-17
4081.092 1.862e-17 1.529e-17
4082.175 2.305e-17 1.574e-17
4083.259 2.211e-17 1.551e-17
4084.343 1.979e-17 1.5e-17
4085.426 3.199e-17 1.501e-17
4086.509 2.965e-17 1.5e-17
4087.593 4.09e-17 1.536e-17
4088.677 2.047e-17 1.525e-17
4089.761 5.18e-17 1.546e-17
4090.844 3.531e-17 1.549e-17
4091.928 3.171e-17 1.538e-17
4093.011 3.394e-17 1.499e-17
4094.094 1.711e-17 1.47e-17
4095.178 4.029e-17 1.519e-17
4096.262 3.278e-17 1.462e-17
4097.346 2.482e-17 1.464e-17
4098.43 2.056e-17 1.429e-17
4099.514 3.331e-17 1.426e-17
4100.598 1.925e-17 1.402e-17
4101.681 2.352e-17 1.4e-17
4102.765 2.753e-17 1.381e-17
4103.849 6.191e-18 1.347e-17
4104.933 3.779e-17 1.423e-17
4106.017 2.032e-17 1.432e-17
4107.101 3.321e-17 1.497e-17
4108.185 2.953e-17 1.479e-17
4109.268 3.317e-17 1.5e-17
4110.353 1.538e-17 1.496e-17
4111.437 3.418e-17 1.497e-17
4112.521 3.446e-17 1.509e-17
4113.605 3.756e-17 1.554e-17
4114.689 2.798e-17 1.533e-17
4115.774 2.247e-17 1.538e-17
4116.857 4.354e-17 1.557e-17
4117.941 4.166e-17 1.539e-17
4119.026 3.587e-17 1.531e-17
4120.11 2.773e-17 1.518e-17
4121.194 1.671e-17 1.469e-17
4122.279 5.005e-17 1.523e-17
4123.363 2.404e-17 1.504e-17
4124.447 3.54e-17 1.519e-17
4125.531 4.736e-17 1.535e-17
4126.616 5.643e-17 1.534e-17
4127.701 -6.533e-19 1.437e-17
4128.784 2.475e-17 1.477e-17
4129.869 1.229e-17 1.465e-17
4130.954 3.986e-17 1.504e-17
4132.038 2.138e-17 1.452e-17
4133.122 4.737e-17 1.467e-17
4134.207 4.281e-17 1.451e-17
4135.292 2.117e-17 1.444e-17
4136.376 4.012e-17 1.489e-17
4137.461 2.434e-17 1.5e-17
4138.546 3.934e-17 1.509e-17
4139.629 5.241e-17 1.556e-17
4140.714 4.145e-17 1.526e-17
4141.799 2.106e-17 1.482e-17
4142.884 2.787e-17 1.421e-17
4143.968 2.096e-17 1.387e-17
4145.053 2.293e-17 1.398e-17
4146.138 3.03e-17 1.424e-17
4147.222 2.667e-17 1.45e-17
4148.307 1.717e-17 1.436e-17
4149.392 6.922e-18 1.44e-17
4150.478 5.814e-17 1.485e-17
4151.562 3.242e-17 1.456e-17
4152.647 4.633e-17 1.449e-17
4153.732 2.944e-17 1.441e-17
4154.816 2.435e-17 1.449e-17
4155.901 2.321e-17 1.42e-17
4156.987 2.124e-17 1.408e-17
4158.072 3.235e-17 1.444e-17
4159.156 2.806e-17 1.467e-17
4160.242 3.033e-17 1.456e-17
4161.327 3.185e-17 1.478e-17
4162.411 2.647e-17 1.469e-17
4163.497 6.428e-17 1.55e-17
4164.582 2.791e-17 1.505e-17
4165.667 3.921e-17 1.544e-17
4166.752 2.214e-17 1.5e-17
4167.837 1.977e-17 1.456e-17
4168.923 2.591e-17 1.474e-17
4170.007 3.667e-17 1.493e-17
4171.093 2.01e-17 1.463e-17
4172.178 1.887e-17 1.425e-17
4173.264 2.496e-17 1.378e-17
4174.348 1.574e-17 1.382e-17
4175.434 3.753e-17 1.405e-17
4176.519 3.576e-17 1.411e-17
4177.604 1.544e-17 1.395e-17
4178.69 1.844e-17 1.39e-17
4179.775 3.387e-17 1.437e-17
4180.861 3.621e-17 1.423e-17
4181.946 3.638e-17 1.417e-17
4183.031 3.479e-17 1.387e-17
4184.117 4.694e-17 1.422e-17
4185.202 1.453e-17 1.377e-17
4186.288 2.099e-17 1.383e-17
4187.373 2.819e-17 1.363e-17
4188.459 8.276e-18 1.346e-17
4189.544 2.99e-17 1.403e-17
4190.63 2.193e-17 1.406e-17
4191.716 4.594e-17 1.441e-17
4192.801 5.052e-17 1.455e-17
4193.887 1.96e-17 1.436e-17
4194.973 1.188e-17 1.406e-17
4196.059 4.627e-17 1.391e-17
4197.143 6.043e-18 1.338e-17
4198.229 6.941e-17 1.413e-17
4199.315 4.324e-17 1.371e-17
4200.401 3.034e-17 1.381e-17
4201.487 3.853e-17 1.383e-17
4202.573 2.841e-17 1.369e-17
4203.659 2.669e-17 1.371e-17
4204.744 3.85e-17 1.402e-17
4205.83 5.782e-17 1.457e-17
4206.916 5.755e-17 1.469e-17
4208.001 5.38e-17 1.5e-17
4209.087 3.576e-17 1.464e-17
4210.174 7.004e-18 1.398e-17
4211.26 3.998e-17 1.459e-17
4212.345 2.068e-18 1.414e-17
4213.431 5.054e-17 1.471e-17
4214.517 1.058e-17 1.41e-17
4215.604 2.542e-17 1.415e-17
4216.689 2.023e-17 1.393e-17
4217.775 3.565e-17 1.432e-17
4218.862 2.841e-17 1.418e-17
4219.947 1.971e-17 1.447e-17
4221.033 2.324e-17 1.443e-17
4222.12 4.438e-17 1.472e-17
4223.206 2.564e-17 1.414e-17
4224.292 2.446e-17 1.365e-17
4225.378 2.999e-17 1.329e-17
4226.465 3.559e-17 1.32e-17
4227.55 3.182e-17 1.291e-17
4228.637 2.181e-17 1.288e-17
4229.723 3.654e-17 1.403e-17
4230.81 5.239e-17 1.454e-17
4231.895 2.164e-17 1.416e-17
4232.982 1.646e-17 1.401e-17
4234.068 1.685e-17 1.399e-17
4235.154 4.311e-17 1.439e-17
4236.241 3.786e-17 1.416e-17
4237.327 2.463e-17 1.37e-17
4238.414 2.462e-17 1.405e-17
4239.499 4.906e-17 1.436e-17
4240.586 2.165e-17 1.414e-17
4241.673 2.682e-17 1.428e-17
4242.759 6.707e-17 1.483e-17
4243.845 4.56e-17 1.461e-17
4244.932 4.078e-17 1.479e-17
4246.019 3.787e-17 1.486e-17
4247.105 2.284e-17 1.481e-17
4248.191 3.857e-17 1.444e-17
4249.278 2.268e-17 1.418e-17
4250.364 4.839e-17 1.448e-17
4251.451 4.357e-17 1.432e-17
4252.538 2.644e-17 1.407e-17
4253.625 2.268e-17 1.416e-17
4254.711 2.855e-17 1.383e-17
4255.798 1.618e-17 1.363e-17
4256.884 5.112e-17 1.426e-17
4257.97 3.974e-17 1.415e-17
4259.057 2.473e-17 1.392e-17
4260.144 3.16e-17 1.36e-17
4261.231 4.996e-17 1.369e-17
4262.317 3.592e-17 1.347e-17
4263.404 1.478e-17 1.33e-17
4264.491 1.872e-17 1.354e-17
4265.578 7.466e-18 1.376e-17
4266.665 3.534e-17 1.393e-17
4267.752 2.478e-17 1.361e-17
4268.839 2.629e-17 1.338e-17
4269.925 1.114e-18 1.284e-17
4271.012 2.964e-17 1.29e-17
4272.099 3.647e-17 1.293e-17
4273.185 2.784e-17 1.274e-17
4274.273 5.569e-17 1.314e-17
4275.36 2.705e-17 1.298e-17
4276.447 4.092e-17 1.319e-17
4277.533 3.129e-17 1.351e-17
4278.621 2.997e-17 1.367e-17
4279.708 3.42e-17 1.365e-17
4280.794 1.697e-17 1.313e-17
4281.881 3.046e-17 1.326e-17
4282.969 4.672e-17 1.354e-17
4284.056 1.778e-17 1.339e-17
4285.142 3.725e-17 1.35e-17
4286.23 4.926e-17 1.347e-17
4287.317 5.722e-17 1.344e-17
4288.404 3.192e-17 1.293e-17
4289.491 1.9e-17 1.27e-17
4290.578 6.025e-17 1.312e-17
4291.666 2.593e-17 1.297e-17
4292.752 3.515e-17 1.309e-17
4293.84 4.043e-17 1.35e-17
4294.927 5.012e-17 1.349e-17
4296.014 2.958e-17 1.333e-17
4297.101 1.883e-17 1.274e-17
4298.189 3.488e-17 1.296e-17
4299.276 2.396e-17 1.232e-17
4300.363 2.829e-17 1.203e-17
4301.451 3.057e-17 1.176e-17
4302.538 4.581e-17 1.212e-17
4303.625 4.18e-17 1.231e-17
4304.712 2.483e-17 1.21e-17
4305.8 4.2e-17 1.255e-17
4306.888 2.425e-17 1.197e-17
4307.974 2.015e-17 1.183e-17
4309.062 3.514e-17 1.208e-17
4310.15 4.477e-17 1.194e-17
4311.236 4.072e-17 1.231e-17
4312.324 3.511e-17 1.245e-17
4313.412 4.264e-17 1.287e-17
4314.5 3.179e-17 1.318e-17
4315.586 2.52e-17 1.354e-17
4316.674 4.723e-17 1.428e-17
4317.762 1.731e-17 1.404e-17
4318.849 5.933e-17 1.463e-17
4319.937 4.171e-17 1.413e-17
4321.024 3.996e-17 1.412e-17
4322.112 3.942e-17 1.412e-17
4323.199 3.075e-17 1.334e-17
4324.287 1.504e-17 1.245e-17
4325.375 1.294e-17 1.236e-17
4326.462 2.761e-17 1.274e-17
4327.55 4.226e-17 1.335e-17
4328.638 5.226e-17 1.372e-17
4329.725 3.12e-17 1.357e-17
4330.812 4.002e-17 1.377e-17
4331.9 2.064e-17 1.335e-17
4332.988 2.668e-17 1.344e-17
4334.075 4.295e-17 1.399e-17
4335.163 4.227e-17 1.4e-17
4336.251 2.604e-17 1.361e-17
4337.338 3.937e-17 1.351e-17
4338.426 3.061e-17 1.312e-17
4339.515 3.163e-17 1.298e-17
4340.603 3.562e-17 1.286e-17
4341.69 5.153e-18 1.244e-17
4342.778 4.171e-17 1.333e-17
4343.866 2.855e-17 1.346e-17
4344.953 3.375e-17 1.375e-17
4346.041 4.891e-17 1.395e-17
4347.129 2.344e-17 1.39e-17
4348.217 7.106e-17 1.484e-17
4349.305 1.561e-17 1.437e-17
4350.393 3.953e-17 1.426e-17
4351.481 4.971e-17 1.412e-17
4352.568 2.29e-17 1.336e-17
4353.656 2.767e-17 1.375e-17
4354.745 3.071e-17 1.391e-17
4355.833 4.055e-18 1.443e-17
4356.92 5.081e-17 1.758e-17
4358.008 2.803e-17 1.985e-17
4359.097 1.622e-17 2.1e-17
4360.184 2.831e-17 2.053e-17
4361.272 4.449e-17 1.813e-17
4362.361 3.702e-17 1.601e-17
4363.449 4.246e-17 1.515e-17
4364.536 4.953e-17 1.497e-17
4365.625 3.996e-17 1.461e-17
4366.713 4.701e-17 1.447e-17
4367.8 5.882e-17 1.475e-17
4368.889 3.604e-17 1.452e-17
4369.977 5.606e-18 1.394e-17
4371.066 4.96e-17 1.423e-17
4372.153 4.586e-17 1.436e-17
4373.242 5.428e-17 1.425e-17
4374.33 2.067e-17 1.402e-17
4375.417 2.137e-17 1.399e-17
4376.506 3.583e-17 1.418e-17
4377.594 4.294e-17 1.443e-17
4378.683 2.704e-17 1.406e-17
4379.77 6.937e-17 1.472e-17
4380.859 4.271e-17 1.414e-17
4381.947 4.985e-17 1.413e-17
4383.035 4.028e-17 1.332e-17
4384.124 3.812e-17 1.331e-17
4385.212 3.048e-17 1.281e-17
4386.301 3.876e-17 1.315e-17
4387.388 1.116e-17 1.31e-17
4388.477 2.412e-17 1.355e-17
4389.565 4.342e-17 1.371e-17
4390.653 4.54e-17 1.386e-17
4391.742 3.105e-17 1.339e-17
4392.83 2.698e-17 1.349e-17
4393.919 2.871e-17 1.359e-17
4395.007 4.067e-17 1.382e-17
4396.095 3.025e-17 1.369e-17
4397.184 3.49e-17 1.371e-17
4398.272 2.297e-17 1.377e-17
4399.36 7.516e-18 1.375e-17
4400.449 2.245e-17 1.362e-17
4401.538 3.026e-17 1.383e-17
4402.626 3.191e-17 1.391e-17
4403.714 2.823e-17 1.355e-17
4404.803 5.479e-17 1.376e-17
4405.891 4.784e-17 1.389e-17
4406.98 3.919e-17 1.397e-17
4408.068 3.463e-17 1.391e-17
4409.157 3.818e-17 1.423e-17
4410.245 3.152e-17 1.411e-17
4411.334 5.48e-17 1.446e-17
4412.423 4.61e-17 1.442e-17
4413.511 3.834e-17 1.434e-17
4414.599 4.083e-17 1.412e-17
4415.688 1.473e-17 1.369e-17
4416.777 3.905e-17 1.389e-17
4417.865 3.882e-17 1.428e-17
4418.954 3.824e-17 1.413e-17
4420.043 4.628e-17 1.462e-17
4421.131 2.56e-17 1.409e-17
4422.22 4.783e-17 1.437e-17
4423.309 1.035e-17 1.366e-17
4424.398 5.121e-17 1.429e-17
4425.485 3.563e-17 1.413e-17
4426.574 4.072e-17 1.407e-17
4427.663 3.89e-17 1.41e-17
4428.751 3.924e-17 1.395e-17
4429.84 2.979e-17 1.392e-17
4430.929 5.157e-17 1.429e-17
4432.018 4.316e-17 1.395e-17
4433.106 3.675e-17 1.403e-17
4434.195 4.27e-17 1.394e-17
4435.284 4.323e-17 1.373e-17
4436.372 3.414e-17 1.349e-17
4437.461 4.479e-17 1.411e-17
4438.551 4.298e-17 1.432e-17
4439.64 4.132e-17 1.434e-17
4440.728 2.552e-17 1.386e-17
4441.817 3.694e-17 1.396e-17
4442.906 2.983e-17 1.382e-17
4443.994 1.561e-17 1.35e-17
4445.083 5.88e-17 1.422e-17
4446.172 3.802e-17 1.411e-17
4447.261 4.402e-17 1.408e-17
4448.349 5.697e-17 1.42e-17
4449.439 3.026e-17 1.379e-17
4450.528 4.199e-17 1.411e-17
4451.616 6.122e-17 1.438e-17
4452.705 4.578e-17 1.409e-17
4453.794 3.482e-17 1.377e-17
4454.883 2.068e-17 1.333e-17
4455.972 2.899e-17 1.323e-17
4457.061 4.752e-17 1.363e-17
4458.15 3.48e-17 1.377e-17
4459.238 1.582e-17 1.313e-17
4460.327 4.318e-17 1.347e-17
4461.417 3.4e-17 1.342e-17
4462.506 4.08e-17 1.363e-17
4463.594 5.994e-17 1.395e-17
4464.683 2.603e-17 1.356e-17
4465.773 5.458e-17 1.411e-17
4466.861 3.179e-17 1.42e-17
4467.95 3.93e-17 1.371e-17
4469.04 3.45e-17 1.375e-17
4470.129 4.309e-17 1.38e-17
4471.217 3.47e-17 1.38e-17
4472.306 4.146e-17 1.4e-17
4473.396 3.213e-17 1.384e-17
4474.484 1.033e-17 1.384e-17
4475.573 2.835e-17 1.408e-17
4476.663 3.36e-17 1.404e-17
4477.751 4.371e-17 1.423e-17
4478.841 5.791e-17 1.423e-17
4479.93 2.166e-17 1.382e-17
4481.019 2.805e-17 1.364e-17
4482.108 4.835e-17 1.35e-17
4483.197 4.358e-17 1.352e-17
4484.286 3.986e-17 1.371e-17
4485.375 2.38e-17 1.393e-17
4486.464 3.988e-17 1.402e-17
4487.554 3.219e-17 1.391e-17
4488.643 5.62e-17 1.426e-17
4489.731 2.563e-17 1.368e-17
4490.821 4.691e-17 1.384e-17
4491.91 5.294e-17 1.405e-17
4492.999 2.662e-17 1.393e-17
4494.088 1.14e-17 1.355e-17
4495.178 3.923e-17 1.38e-17
4496.267 3.242e-17 1.369e-17
4497.356 4.659e-17 1.394e-17
4498.445 2.888e-17 1.39e-17
4499.535 4.249e-17 1.426e-17
4500.623 3.549e-17 1.392e-17
4501.713 -2.884e-18 1.347e-17
4502.802 5.402e-17 1.432e-17
4503.892 4.861e-17 1.419e-17
4504.98 3.414e-17 1.4e-17
4506.07 4.008e-17 1.432e-17
4507.159 3.652e-17 1.411e-17
4508.248 4.124e-17 1.432e-17
4509.337 5.15e-17 1.434e-17
4510.427 2.963e-17 1.398e-17
4511.516 1.93e-17 1.403e-17
4512.605 2.607e-17 1.394e-17
4513.694 2.03e-17 1.36e-17
4514.784 1.098e-17 1.354e-17
4515.873 2.334e-17 1.353e-17
4516.962 4.336e-17 1.378e-17
4518.052 2.87e-17 1.381e-17
4519.141 4.417e-17 1.379e-17
4520.23 4.174e-17 1.375e-17
4521.32 1.765e-17 1.365e-17
4522.409 3.249e-17 1.368e-17
4523.498 2.754e-17 1.386e-17
4524.587 3.322e-17 1.388e-17
4525.677 1.706e-17 1.334e-17
4526.767 2.035e-17 1.332e-17
4527.855 2.433e-17 1.312e-17
4528.945 1.953e-17 1.321e-17
4530.035 3.204e-17 1.319e-17
4531.123 1.769e-17 1.313e-17
4532.213 2.066e-17 1.348e-17
4533.303 2.433e-17 1.349e-17
4534.392 4.055e-18 1.322e-17
4535.481 2.329e-17 1.327e-17
4536.571 4.416e-17 1.351e-17
4537.66 3.283e-17 1.363e-17
4538.749 4.5e-17 1.392e-17
4539.839 3.224e-17 1.366e-17
4540.928 3.93e-17 1.377e-17
4542.018 2.402e-17 1.355e-17
4543.107 2.045e-17 1.332e-17
4544.197 2.72e-17 1.37e-17
4545.286 2.918e-17 1.349e-17
4546.375 4.422e-18 1.32e-17
4547.465 1.559e-17 1.329e-17
4548.554 2.249e-17 1.313e-17
4549.644 1.403e-17 1.309e-17
4550.733 2.004e-17 1.306e-17
4551.823 3.734e-17 1.319e-17
4552.912 4.519e-17 1.346e-17
4554.001 4.258e-17 1.338e-17
4555.091 2.266e-17 1.328e-17
4556.181 3.122e-17 1.317e-17
4557.269 3.669e-18 1.303e-17
4558.359 3.224e-17 1.353e-17
4559.449 3.45e-17 1.349e-17
4560.539 2.529e-17 1.34e-17
4561.627 1.199e-17 1.327e-17
4562.717 2.241e-17 1.33e-17
4563.807 4.425e-17 1.367e-17
4564.896 3.279e-17 1.333e-17
4565.986 2.185e-17 1.293e-17
4567.075 2.803e-17 1.299e-17
4568.165 4.009e-17 1.337e-17
4569.254 2.939e-17 1.345e-17
4570.344 1.638e-17 1.319e-17
4571.434 1.788e-17 1.302e-17
4572.522 2.331e-17 1.292e-17
4573.612 2.626e-17 1.315e-17
4574.702 1.203e-17 1.294e-17
4575.792 1.625e-17 1.31e-17
4576.881 3.428e-17 1.341e-17
4577.971 2.343e-17 1.33e-17
4579.06 3.838e-17 1.338e-17
4580.149 2.091e-17 1.303e-17
4581.239 3.67e-17 1.33e-17
4582.329 4.108e-17 1.299e-17
4583.419 2.408e-17 1.279e-17
4584.508 3.357e-17 1.308e-17
4585.598 1.426e-17 1.274e-17
4586.687 2.866e-17 1.28e-17
4587.776 2.039e-17 1.281e-17
4588.866 1.065e-17 1.282e-17
4589.956 4.222e-17 1.355e-17
4591.046 3.684e-17 1.322e-17
4592.135 2.547e-17 1.302e-17
4593.225 3.659e-17 1.31e-17
4594.314 3.136e-17 1.286e-17
4595.403 2.76e-17 1.293e-17
4596.493 2.029e-17 1.265e-17
4597.583 2.252e-17 1.28e-17
4598.673 3.003e-17 1.297e-17
4599.762 2.463e-17 1.299e-17
4600.852 2.742e-17 1.271e-17
4601.942 3.582e-17 1.28e-17
4603.031 4.32e-17 1.296e-17
4604.12 3.663e-17 1.276e-17
4605.21 2.48e-17 1.261e-17
4606.3 4.794e-17 1.307e-17
4607.389 3.173e-17 1.301e-17
4608.479 2.601e-17 1.298e-17
4609.569 1.499e-17 1.258e-17
4610.658 3.329e-17 1.322e-17
4611.748 2.42e-17 1.282e-17
4612.838 3.299e-17 1.291e-17
4613.928 3.878e-17 1.298e-17
4615.016 2.256e-17 1.266e-17
4616.106 1.103e-17 1.254e-17
4617.196 1.595e-17 1.263e-17
4618.285 1.383e-17 1.278e-17
4619.375 2.889e-17 1.273e-17
4620.465 6.305e-18 1.262e-17
4621.555 2.443e-17 1.269e-17
4622.644 1.957e-17 1.282e-17
4623.734 1.942e-17 1.285e-17
4624.824 4.367e-17 1.307e-17
4625.913 4.039e-17 1.298e-17
4627.003 4.378e-17 1.289e-17
4628.093 2.903e-17 1.285e-17
4629.181 3.361e-17 1.301e-17
4630.271 1.371e-17 1.249e-17
4631.361 4.463e-17 1.302e-17
4632.451 9.434e-18 1.249e-17
4633.54 1.423e-17 1.249e-17
4634.63 2.749e-17 1.276e-17
4635.72 2.4e-17 1.276e-17
4636.809 4.166e-17 1.282e-17
4637.899 2.943e-17 1.261e-17
4638.989 3.194e-17 1.269e-17
4640.079 4.817e-17 1.266e-17
4641.168 3.005e-17 1.275e-17
4642.258 2.351e-17 1.261e-17
4643.348 5.328e-17 1.32e-17
4644.437 2.753e-17 1.267e-17
4645.527 3.176e-17 1.272e-17
4646.616 2.566e-17 1.245e-17
4647.706 3.997e-17 1.252e-17
4648.795 3.673e-17 1.268e-17
4649.885 1.421e-17 1.213e-17
4650.975 3.319e-17 1.253e-17
4652.064 3.101e-17 1.289e-17
4653.154 3.868e-17 1.296e-17
4654.244 3.623e-17 1.273e-17
4655.334 3.903e-17 1.275e-17
4656.423 3.986e-17 1.279e-17
4657.513 3.286e-17 1.277e-17
4658.603 5.657e-17 1.329e-17
4659.692 5.018e-17 1.323e-17
4660.782 2.39e-17 1.286e-17
4661.872 5.222e-17 1.336e-17
4662.962 2.412e-17 1.278e-17
4664.051 3.355e-17 1.297e-17
4665.141 4.195e-17 1.281e-17
4666.23 3.667e-17 1.246e-17
4667.319 3.544e-17 1.245e-17
4668.409 5.318e-17 1.278e-17
4669.499 3.446e-17 1.253e-17
4670.589 2.592e-17 1.255e-17
4671.678 5.144e-17 1.292e-17
4672.768 6.108e-17 1.298e-17
4673.858 4.265e-17 1.278e-17
4674.947 5.44e-17 1.29e-17
4676.037 3.094e-17 1.265e-17
4677.127 3.581e-17 1.28e-17
4678.217 3.68e-17 1.259e-17
4679.306 3.133e-17 1.24e-17
4680.396 2.768e-17 1.227e-17
4681.486 4.197e-17 1.25e-17
4682.574 3.516e-17 1.225e-17
4683.664 4.108e-17 1.257e-17
4684.754 1.796e-17 1.208e-17
4685.843 4.72e-17 1.251e-17
4686.933 4.137e-17 1.259e-17
4688.023 4.066e-17 1.229e-17
4689.113 5.032e-17 1.26e-17
4690.202 4.827e-17 1.257e-17
4691.292 1.684e-17 1.199e-17
4692.382 4.409e-17 1.255e-17
4693.471 3.379e-17 1.238e-17
4694.561 4.027e-17 1.246e-17
4695.651 4.988e-17 1.258e-17
4696.74 5.924e-17 1.278e-17
4697.829 3.58e-17 1.228e-17
4698.919 2.81e-17 1.212e-17
4700.009 2.818e-17 1.21e-17
4701.098 3.572e-17 1.22e-17
4702.188 1.782e-17 1.187e-17
4703.278 3.115e-17 1.203e-17
4704.368 3.128e-17 1.216e-17
4705.457 5.087e-17 1.251e-17
4706.547 4.567e-17 1.257e-17
4707.636 5.252e-17 1.244e-17
4708.725 4.312e-17 1.231e-17
4709.815 4.288e-17 1.231e-17
4710.905 3.129e-17 1.231e-17
4711.995 2.487e-17 1.225e-17
4713.084 3.099e-17 1.217e-17
4714.174 5.279e-17 1.261e-17
4715.264 3.533e-17 1.252e-17
4716.353 4.199e-17 1.266e-17
4717.442 4.58e-17 1.26e-17
4718.532 3.99e-17 1.272e-17
4719.622 3.243e-17 1.24e-17
4720.711 4.175e-17 1.282e-17
4721.801 3.558e-17 1.253e-17
4722.891 3.593e-17 1.261e-17
4723.98 3.027e-17 1.244e-17
4725.069 3.688e-17 1.283e-17
4726.159 3.439e-17 1.271e-17
4727.249 4.521e-17 1.27e-17
4728.338 2.093e-17 1.22e-17
4729.428 3.102e-17 1.244e-17
4730.518 4.17e-17 1.247e-17
4731.606 3.634e-17 1.235e-17
4732.696 5.57e-17 1.271e-17
4733.786 4.21e-17 1.26e-17
4734.876 5.005e-17 1.279e-17
4735.965 3.306e-17 1.248e-17
4737.055 4.422e-17 1.27e-17
4738.144 3.851e-17 1.276e-17
4739.233 2.355e-17 1.249e-17
4740.323 5.223e-17 1.295e-17
4741.413 2.132e-17 1.259e-17
4742.502 1.358e-17 1.268e-17
4743.591 2.524e-17 1.287e-17
4744.681 4.027e-17 1.315e-17
4745.771 3.209e-17 1.259e-17
4746.86 3.857e-17 1.27e-17
4747.95 5.335e-17 1.289e-17
4749.039 2.882e-17 1.257e-17
4750.128 5.412e-17 1.275e-17
4751.218 6.081e-17 1.314e-17
4752.308 3.931e-17 1.268e-17
4753.397 4.495e-17 1.282e-17
4754.486 2.979e-17 1.259e-17
4755.576 3.274e-17 1.246e-17
4756.666 3.652e-17 1.244e-17
4757.754 3.884e-17 1.265e-17
4758.844 5.218e-17 1.28e-17
4759.934 4.907e-17 1.28e-17
4761.024 3.674e-17 1.248e-17
4762.112 3.732e-17 1.249e-17
4763.202 1.629e-17 1.206e-17
4764.292 3.573e-17 1.224e-17
4765.38 5.806e-17 1.249e-17
4766.47 4.268e-17 1.23e-17
4767.56 3.85e-17 1.233e-17
4768.65 2.078e-17 1.22e-17
4769.738 4.021e-17 1.246e-17
4770.828 5.065e-17 1.277e-17
4771.918 3.325e-17 1.25e-17
4773.006 4.838e-17 1.255e-17
4774.096 5.052e-17 1.255e-17
4775.186 3.771e-17 1.256e-17
4776.275 4.742e-17 1.278e-17
4777.364 3.739e-17 1.244e-17
4778.454 4.374e-17 1.281e-17
4779.543 4.497e-17 1.28e-17
4780.632 5.358e-17 1.293e-17
4781.722 1.473e-17 1.227e-17
4782.811 6.712e-17 1.317e-17
4783.901 3.584e-17 1.255e-17
4784.989 4.91e-17 1.273e-17
4786.079 2.942e-17 1.231e-17
4787.169 2.851e-17 1.226e-17
4788.257 4.996e-17 1.27e-17
4789.347 2.937e-17 1.21e-17
4790.437 5.428e-17 1.282e-17
4791.525 5.684e-17 1.275e-17
4792.615 3.361e-17 1.249e-17
4793.704 4.702e-17 1.291e-17
4794.794 3.5e-17 1.262e-17
4795.882 3.772e-17 1.278e-17
4796.972 3.476e-17 1.275e-17
4798.062 3.826e-17 1.251e-17
4799.15 4.933e-17 1.254e-17
4800.24 2.584e-17 1.234e-17
4801.329 3.245e-17 1.235e-17
4802.419 3.335e-17 1.252e-17
4803.507 3.572e-17 1.247e-17
4804.597 1.937e-17 1.242e-17
4805.686 2.99e-17 1.234e-17
4806.775 4.797e-17 1.273e-17
4807.864 4.011e-17 1.254e-17
4808.954 2.641e-17 1.244e-17
4810.043 4.875e-17 1.268e-17
4811.132 3.778e-17 1.251e-17
4812.221 3.119e-17 1.25e-17
4813.311 4.484e-17 1.258e-17
4814.399 4.341e-17 1.27e-17
4815.489 4.841e-17 1.278e-17
4816.578 2.029e-17 1.253e-17
4817.668 1.612e-17 1.255e-17
4818.756 4.579e-17 1.296e-17
4819.845 4.906e-17 1.301e-17
4820.935 4.533e-17 1.309e-17
4822.023 6.156e-17 1.314e-17
4823.113 2.817e-17 1.274e-17
4824.202 2.953e-17 1.231e-17
4825.291 3.451e-17 1.266e-17
4826.38 3.382e-17 1.274e-17
4827.469 3.703e-17 1.285e-17
4828.559 5.018e-17 1.302e-17
4829.647 4.038e-17 1.292e-17
4830.736 4.966e-17 1.281e-17
4831.826 2.331e-17 1.262e-17
4832.915 3.851e-17 1.26e-17
4834.003 3.029e-17 1.266e-17
4835.093 3.691e-17 1.276e-17
4836.182 2.593e-17 1.271e-17
4837.27 4.046e-17 1.272e-17
4838.36 4.503e-17 1.279e-17
4839.449 3.053e-17 1.259e-17
4840.537 3.113e-17 1.251e-17
4841.626 4.826e-17 1.282e-17
4842.716 3.635e-17 1.251e-17
4843.805 3.438e-17 1.243e-17
4844.893 4.864e-17 1.283e-17
4845.983 2.728e-17 1.241e-17
4847.072 3.839e-17 1.25e-17
4848.16 3.173e-17 1.247e-17
4849.249 3.733e-17 1.243e-17
4850.338 4.991e-17 1.264e-17
4851.428 3.764e-17 1.258e-17
4852.516 4.116e-17 1.266e-17
4853.605 2.871e-17 1.235e-17
4854.694 4.07e-17 1.23e-17
4855.782 3.547e-17 1.229e-17
4856.872 4.308e-17 1.226e-17
4857.961 2.328e-17 1.184e-17
4859.05 3.196e-17 1.195e-17
4860.138 3.377e-17 1.183e-17
4861.227 4.371e-17 1.182e-17
4862.316 3.797e-17 1.2e-17
4863.405 3.526e-17 1.165e-17
4864.494 2.298e-17 1.165e-17
4865.583 1.519e-17 1.165e-17
4866.672 4.315e-17 1.23e-17
4867.76 3.729e-17 1.222e-17
4868.849 2.192e-17 1.21e-17
4869.938 4.229e-17 1.223e-17
4871.026 2.994e-17 1.196e-17
4872.115 9.457e-18 1.15e-17
4873.204 5.069e-17 1.216e-17
4874.293 2.402e-17 1.198e-17
4875.381 1.261e-17 1.185e-17
4876.47 5.698e-17 1.268e-17
4877.559 5.365e-17 1.252e-17
4878.647 5.828e-17 1.288e-17
4879.736 4.663e-17 1.261e-17
4880.825 6.421e-17 1.281e-17
4881.914 4.639e-18 1.198e-17
4883.002 2.6e-17 1.22e-17
4884.091 3.429e-17 1.24e-17
4885.18 3.111e-17 1.23e-17
4886.268 3.138e-17 1.232e-17
4887.357 3.802e-17 1.235e-17
4888.446 3.273e-17 1.214e-17
4889.534 5.23e-17 1.247e-17
4890.623 3.668e-17 1.22e-17
4891.712 4.759e-17 1.229e-17
4892.8 4.523e-17 1.233e-17
4893.888 4.361e-17 1.25e-17
4894.977 3.348e-17 1.257e-17
4896.066 2.036e-17 1.226e-17
4897.154 3.161e-17 1.259e-17
4898.243 3.817e-17 1.247e-17
4899.331 2.027e-17 1.223e-17
4900.42 2.361e-17 1.202e-17
4901.508 2.33e-17 1.213e-17
4902.597 3.84e-17 1.22e-17
4903.686 3.265e-17 1.217e-17
4904.773 3.668e-17 1.233e-17
4905.862 4.432e-17 1.252e-17
4906.951 3.799e-17 1.252e-17
4908.04 3.949e-17 1.245e-17
4909.127 3.303e-17 1.218e-17
4910.216 5.367e-17 1.239e-17
4911.305 1.622e-17 1.173e-17
4912.392 2.652e-17 1.21e-17
4913.481 2.532e-17 1.196e-17
4914.57 3.301e-17 1.236e-17
4915.658 1.937e-17 1.212e-17
4916.746 2.493e-17 1.218e-17
4917.835 4.147e-17 1.225e-17
4918.923 3.396e-17 1.2e-17
4920.011 4.389e-17 1.182e-17
4921.1 1.711e-17 1.14e-17
4922.188 2.394e-17 1.172e-17
4923.277 4.531e-17 1.226e-17
4924.364 3.743e-17 1.203e-17
4925.453 4.16e-17 1.237e-17
4926.541 3.863e-17 1.233e-17
4927.629 3.533e-17 1.215e-17
4928.717 2.287e-17 1.207e-17
4929.806 2.191e-17 1.214e-17
4930.894 3.899e-17 1.238e-17
4931.982 5.143e-17 1.257e-17
4933.07 2.835e-17 1.22e-17
4934.159 3.554e-17 1.214e-17
4935.246 1.822e-17 1.18e-17
4936.335 3.734e-17 1.219e-17
4937.423 6.283e-17 1.265e-17
4938.511 4.7e-17 1.215e-17
4939.599 2.003e-17 1.173e-17
4940.687 3.807e-17 1.197e-17
4941.776 4.28e-17 1.231e-17
4942.863 5.076e-17 1.248e-17
4943.952 2.606e-17 1.224e-17
4945.04 4.692e-17 1.247e-17
4946.127 2.071e-17 1.191e-17
4947.216 4.053e-17 1.222e-17
4948.304 1.451e-17 1.194e-17
4949.392 1.37e-17 1.206e-17
4950.48 3.067e-17 1.226e-17
4951.568 2.543e-17 1.23e-17
4952.656 3.464e-17 1.254e-17
4953.743 3.936e-17 1.254e-17
4954.832 4.429e-17 1.251e-17
4955.92 3.029e-17 1.206e-17
4957.008 4.401e-17 1.201e-17
4958.095 1.848e-17 1.155e-17
4959.183 4.247e-17 1.198e-17
4960.272 3.879e-17 1.223e-17
4961.359 6.272e-18 1.184e-17
4962.447 2.943e-17 1.231e-17
4963.535 4.058e-17 1.212e-17
4964.623 4.627e-17 1.245e-17
4965.71 3.945e-17 1.226e-17
4966.798 3.044e-17 1.214e-17
4967.886 3.494e-17 1.215e-17
4968.974 3.608e-17 1.227e-17
4970.062 4.565e-17 1.247e-17
4971.15 4.68e-17 1.247e-17
4972.238 1.761e-17 1.204e-17
4973.325 2.834e-17 1.226e-17
4974.413 2.365e-17 1.222e-17
4975.501 2.542e-17 1.229e-17
4976.588 3.713e-17 1.266e-17
4977.676 1.655e-17 1.235e-17
4978.764 3.736e-17 1.239e-17
4979.852 4.919e-17 1.256e-17
4980.939 3.468e-17 1.25e-17
4982.026 3.29e-17 1.23e-17
4983.114 2.562e-17 1.229e-17
4984.201 2.241e-17 1.197e-17
4985.289 1.235e-17 1.18e-17
4986.377 4.873e-17 1.251e-17
4987.464 1.795e-17 1.206e-17
4988.552 2.001e-17 1.221e-17
4989.639 4.682e-17 1.255e-17
4990.727 3.867e-17 1.231e-17
4991.814 2.413e-17 1.222e-17
4992.902 3.268e-17 1.235e-17
4993.99 1.575e-17 1.201e-17
4995.076 2.642e-17 1.193e-17
4996.164 2.155e-17 1.187e-17
4997.252 2.486e-17 1.196e-17
4998.34 3.667e-17 1.214e-17
4999.426 2.802e-17 1.192e-17
5000.514 7.281e-18 1.155e-17
5001.602 2.095e-17 1.165e-17
5002.688 4.156e-17 1.184e-17
5003.776 3.769e-17 1.181e-17
5004.864 2.7e-17 1.164e-17
5005.951 2.89e-17 1.141e-17
5007.038 3.563e-17 1.152e-17
5008.125 3.33e-17 1.162e-17
5009.213 3.495e-17 1.191e-17
5010.299 3.622e-17 1.185e-17
5011.387 1.872e-17 1.139e-17
5012.474 4.058e-17 1.169e-17
5013.562 2.639e-17 1.126e-17
5014.648 5.351e-17 1.17e-17
5015.736 3.303e-17 1.14e-17
5016.823 2.984e-17 1.151e-17
5017.91 4.369e-17 1.16e-17
5018.997 4.1e-17 1.18e-17
5020.085 1.437e-17 1.14e-17
5021.172 3.502e-17 1.171e-17
5022.259 4.562e-17 1.203e-17
5023.346 1.749e-17 1.145e-17
5024.433 2.036e-17 1.157e-17
5025.52 4.291e-17 1.159e-17
5026.607 3.679e-17 1.172e-17
5027.694 4.123e-17 1.18e-17
5028.781 1.974e-17 1.153e-17
5029.868 4.88e-17 1.185e-17
5030.955 3.051e-17 1.169e-17
5032.042 3.936e-17 1.187e-17
5033.129 1.793e-17 1.169e-17
5034.216 2.314e-17 1.181e-17
5035.303 3.243e-17 1.17e-17
5036.389 4.192e-17 1.187e-17
5037.476 2.278e-17 1.154e-17
5038.563 3.005e-17 1.138e-17
5039.651 5.407e-17 1.192e-17
5040.737 2.782e-17 1.122e-17
5041.824 1.678e-17 1.099e-17
5042.911 4.132e-17 1.165e-17
5043.997 3.034e-17 1.171e-17
5045.084 1.777e-17 1.161e-17
5046.171 3.685e-17 1.198e-17
5047.258 3.49e-17 1.202e-17
5048.344 2.522e-17 1.155e-17
5049.431 3.259e-17 1.162e-17
5050.518 3.203e-17 1.187e-17
5051.604 2.053e-17 1.143e-17
5052.691 4.351e-17 1.199e-17
5053.778 2.994e-17 1.17e-17
5054.865 3.664e-17 1.21e-17
5055.951 2.47e-17 1.178e-17
5057.038 1.167e-17 1.158e-17
5058.125 3.892e-17 1.184e-17
5059.21 2.695e-17 1.22e-17
5060.297 1.703e-17 1.185e-17
5061.384 2.417e-17 1.191e-17
5062.471 2.096e-17 1.2e-17
5063.557 4.728e-17 1.231e-17
5064.643 3.81e-17 1.244e-17
5065.73 3.405e-17 1.212e-17
5066.816 2.569e-17 1.178e-17
5067.903 4.074e-17 1.21e-17
5068.989 1.93e-17 1.175e-17
5070.076 2.294e-17 1.213e-17
5071.162 4.295e-17 1.218e-17
5072.248 3.549e-17 1.21e-17
5073.335 2.216e-17 1.181e-17
5074.42 3.397e-17 1.188e-17
5075.507 3.217e-17 1.187e-17
5076.594 2.897e-17 1.174e-17
5077.679 2.494e-17 1.187e-17
5078.766 3.826e-17 1.202e-17
5079.852 3.663e-17 1.19e-17
5080.939 3.456e-17 1.196e-17
5082.024 9.407e-18 1.175e-17
5083.111 3.586e-17 1.227e-17
5084.197 1.696e-17 1.2e-17
5085.283 2.99e-17 1.247e-17
5086.369 1.342e-17 1.244e-17
5087.455 2.623e-17 1.244e-17
5088.542 2.947e-17 1.228e-17
5089.627 2.166e-17 1.208e-17
5090.713 2.166e-17 1.213e-17
5091.8 4.111e-17 1.228e-17
5092.885 2.57e-17 1.195e-17
5093.971 2.368e-17 1.201e-17
5095.058 2.307e-17 1.207e-17
5096.144 2.092e-17 1.186e-17
5097.229 5.31e-17 1.23e-17
5098.315 5.327e-17 1.225e-17
5099.402 3.724e-17 1.211e-17
5100.487 2.808e-17 1.18e-17
5101.573 3.525e-17 1.215e-17
5102.659 7.936e-18 1.169e-17
5103.745 5.455e-17 1.242e-17
5104.83 3.747e-17 1.207e-17
5105.916 3.128e-17 1.188e-17
5107.002 2.222e-17 1.201e-17
5108.088 3.674e-17 1.181e-17
5109.174 3.404e-17 1.192e-17
5110.26 2.587e-17 1.179e-17
5111.346 2.745e-17 1.186e-17
5112.431 2.584e-17 1.192e-17
5113.516 3.614e-17 1.212e-17
5114.602 3.523e-17 1.205e-17
5115.687 8.423e-18 1.153e-17
5116.773 4.582e-17 1.243e-17
5117.859 4.031e-17 1.23e-17
5118.945 2.071e-17 1.23e-17
5120.03 3.639e-17 1.224e-17
5121.116 2.428e-17 1.206e-17
5122.201 3.207e-17 1.207e-17
5123.286 2.13e-17 1.173e-17
5124.372 2.147e-17 1.147e-17
5125.458 4.23e-17 1.207e-17
5126.542 2.922e-17 1.187e-17
5127.628 3.684e-17 1.203e-17
5128.714 2.534e-17 1.186e-17
5129.8 3.355e-17 1.204e-17
5130.884 2.26e-17 1.177e-17
5131.97 2.555e-17 1.19e-17
5133.055 4.556e-17 1.229e-17
5134.14 2.878e-17 1.218e-17
5135.226 4.609e-17 1.238e-17
5136.311 3.189e-17 1.205e-17
5137.397 4.802e-17 1.235e-17
5138.481 2.469e-17 1.187e-17
5139.567 3.542e-17 1.196e-17
5140.652 1.638e-17 1.177e-17
5141.737 3.565e-17 1.216e-17
5142.822 2.463e-17 1.179e-17
5143.907 2.251e-17 1.202e-17
5144.993 5.056e-17 1.244e-17
5146.077 1.887e-17 1.203e-17
5147.163 3.247e-17 1.219e-17
5148.248 2.214e-17 1.199e-17
5149.332 3.646e-17 1.223e-17
5150.417 2.548e-17 1.212e-17
5151.503 3.874e-17 1.246e-17
5152.588 3.996e-17 1.229e-17
5153.672 3.74e-17 1.25e-17
5154.757 2.106e-17 1.228e-17
5155.843 2.866e-17 1.221e-17
5156.927 1.468e-17 1.204e-17
5158.012 2.475e-17 1.229e-17
5159.097 2.744e-17 1.238e-17
5160.182 2.561e-17 1.242e-17
5161.266 3.056e-17 1.229e-17
5162.351 3.526e-17 1.213e-17
5163.436 3.121e-17 1.211e-17
5164.52 2.529e-17 1.191e-17
5165.605 4.698e-17 1.226e-17
5166.69 4.872e-17 1.195e-17
5167.775 4.08e-17 1.172e-17
5168.859 3.231e-17 1.166e-17
5169.944 3.159e-17 1.134e-17
5171.029 5.014e-17 1.212e-17
5172.113 3.763e-17 1.152e-17
5173.198 2.894e-17 1.132e-17
5174.282 4.299e-17 1.18e-17
5175.366 4.058e-17 1.191e-17
5176.451 4.092e-17 1.232e-17
5177.536 2.875e-17 1.234e-17
5178.621 3.166e-17 1.232e-17
5179.704 3.251e-17 1.227e-17
5180.789 2.812e-17 1.228e-17
5181.874 1.879e-17 1.189e-17
5182.957 2.556e-17 1.164e-17
5184.042 2.508e-17 1.124e-17
5185.127 3.699e-17 1.149e-17
5186.211 4.859e-17 1.227e-17
5187.295 3.758e-17 1.222e-17
5188.379 2.53e-17 1.247e-17
5189.464 4.108e-17 1.281e-17
5190.547 1.48e-17 1.201e-17
5191.632 4.034e-17 1.249e-17
5192.716 3.298e-17 1.244e-17
5193.801 3.546e-17 1.232e-17
5194.884 1.04e-17 1.204e-17
5195.968 7.417e-18 1.198e-17
5197.053 2.06e-17 1.194e-17
5198.136 4.868e-17 1.283e-17
5199.22 2.923e-17 1.249e-17
5200.305 2.377e-17 1.271e-17
5201.389 2.323e-17 1.277e-17
5202.472 4.282e-17 1.299e-17
5203.557 2.834e-17 1.296e-17
5204.641 6.684e-17 1.328e-17
5205.724 2.103e-17 1.228e-17
5206.808 2.484e-17 1.201e-17
5207.892 4.641e-17 1.25e-17
5208.976 1.616e-17 1.217e-17
5210.059 1.867e-17 1.218e-17
5211.143 1.259e-17 1.209e-17
5212.228 3.696e-17 1.272e-17
5213.311 1.799e-17 1.232e-17
5214.395 3.834e-17 1.28e-17
5215.479 4.15e-17 1.258e-17
5216.562 3.979e-17 1.253e-17
5217.645 3.489e-17 1.255e-17
5218.729 1.985e-17 1.239e-17
5219.813 2.394e-17 1.23e-17
5220.896 4.332e-17 1.296e-17
5221.98 2.396e-17 1.267e-17
5223.064 4.063e-17 1.262e-17
5224.147 4.56e-17 1.303e-17
5225.23 2.19e-17 1.274e-17
5226.314 2.032e-17 1.219e-17
5227.398 3.971e-17 1.227e-17
5228.48 9.154e-18 1.17e-17
5229.564 8.286e-18 1.183e-17
5230.648 2.47e-17 1.216e-17
5231.73 3.357e-17 1.246e-17
5232.814 4.25e-17 1.26e-17
5233.898 1.837e-17 1.201e-17
5234.981 2.452e-17 1.236e-17
5236.064 3.134e-17 1.244e-17
5237.147 3.38e-17 1.244e-17
5238.231 2.2e-17 1.276e-17
5239.313 2.532e-17 1.286e-17
5240.397 1.898e-17 1.288e-17
5241.48 8.894e-18 1.244e-17
5242.563 1.669e-17 1.219e-17
5243.646 2.169e-17 1.241e-17
5244.729 1.748e-17 1.216e-17
5245.812 2.498e-17 1.259e-17
5246.895 3.789e-17 1.26e-17
5247.978 2.634e-17 1.237e-17
5249.061 2.836e-17 1.246e-17
5250.144 3.307e-17 1.25e-17
5251.227 1.272e-17 1.225e-17
5252.31 2.622e-17 1.233e-17
5253.393 2.166e-17 1.232e-17
5254.475 2.782e-17 1.263e-17
5255.558 3.158e-17 1.294e-17
5256.641 1.293e-17 1.263e-17
5257.724 2.712e-17 1.298e-17
5258.806 3.848e-17 1.313e-17
5259.889 5.262e-18 1.232e-17
5260.972 1.422e-17 1.212e-17
5262.054 3.159e-17 1.251e-17
5263.137 2.463e-17 1.213e-17
5264.22 3.092e-17 1.174e-17
5265.303 3.294e-17 1.192e-17
5266.385 2.075e-17 1.17e-17
5267.467 3.516e-17 1.204e-17
5268.55 1.336e-17 1.16e-17
5269.632 4.045e-17 1.204e-17
5270.715 3.302e-17 1.208e-17
5271.797 3.66e-17 1.223e-17
5272.88 2.579e-17 1.206e-17
5273.962 2.424e-17 1.223e-17
5275.044 3.8e-17 1.279e-17
5276.127 1.682e-17 1.25e-17
5277.209 2.501e-17 1.264e-17
5278.291 4.262e-17 1.272e-17
5279.374 1.863e-17 1.265e-17
5280.455 4.243e-17 1.283e-17
5281.538 3.375e-17 1.261e-17
5282.62 3.058e-17 1.231e-17
5283.703 3.236e-17 1.245e-17
5284.784 2.469e-17 1.239e-17
5285.866 4.525e-17 1.301e-17
5286.949 3.319e-17 1.284e-17
5288.03 1.284e-17 1.24e-17
5289.112 3.156e-17 1.284e-17
5290.195 2.98e-17 1.274e-17
5291.277 4.513e-17 1.303e-17
5292.358 1.375e-17 1.27e-17
5293.44 3.3e-17 1.301e-17
5294.522 4.449e-17 1.307e-17
5295.604 2.103e-17 1.297e-17
5296.686 3.02e-17 1.271e-17
5297.768 1.413e-17 1.262e-17
5298.85 4.061e-17 1.311e-17
5299.931 1.397e-17 1.294e-17
5301.013 2.254e-17 1.278e-17
5302.095 1.114e-17 1.281e-17
5303.176 9.214e-18 1.284e-17
5304.258 2.933e-17 1.319e-17
5305.34 4.531e-17 1.378e-17
5306.422 5.604e-17 1.348e-17
5307.502 7.904e-18 1.308e-17
5308.584 2.365e-17 1.327e-17
5309.666 3.792e-17 1.345e-17
5310.747 2.6e-17 1.348e-17
5311.828 8.935e-18 1.341e-17
5312.91 1.556e-17 1.359e-17
5313.992 3.922e-17 1.396e-17
5315.073 2.611e-17 1.373e-17
5316.154 1.837e-17 1.343e-17
5317.236 2.162e-17 1.356e-17
5318.316 2.46e-17 1.361e-17
5319.398 2.225e-17 1.361e-17
5320.479 4.773e-17 1.386e-17
5321.561 1.246e-17 1.353e-17
5322.641 1.58e-17 1.345e-17
5323.723 3.405e-17 1.393e-17
5324.804 5.238e-17 1.413e-17
5325.885 3.745e-17 1.412e-17
5326.966 2.742e-17 1.375e-17
5328.047 3.955e-17 1.359e-17
5329.129 4.023e-17 1.384e-17
5330.209 2.519e-17 1.332e-17
5331.29 1.328e-17 1.371e-17
5332.371 3.11e-17 1.372e-17
5333.451 2.596e-17 1.402e-17
5334.533 3.768e-17 1.525e-17
5335.614 5.387e-17 1.558e-17
5336.694 4.034e-17 1.542e-17
5337.775 2.527e-17 1.485e-17
5338.856 3.848e-17 1.509e-17
5339.937 4.337e-17 1.532e-17
5341.017 3.478e-17 1.509e-17
5342.098 1.657e-17 1.457e-17
5343.179 3.307e-17 1.491e-17
5344.259 3.542e-17 1.506e-17
5345.34 3.202e-17 1.458e-17
5346.421 3.115e-17 1.477e-17
5347.501 3.013e-17 1.476e-17
5348.581 2.61e-17 1.47e-17
5349.662 1.933e-17 1.439e-17
5350.743 2.176e-17 1.448e-17
5351.822 2.583e-17 1.449e-17
5352.903 3.349e-17 1.401e-17
5353.984 2.357e-17 1.388e-17
5355.064 3.461e-17 1.43e-17
5356.144 2.166e-17 1.414e-17
5357.224 3.625e-17 1.408e-17
5358.305 3.17e-17 1.413e-17
5359.384 4.033e-17 1.452e-17
5360.465 1.977e-17 1.406e-17
5361.545 2.251e-17 1.361e-17
5362.626 2.731e-17 1.355e-17
5363.705 3.303e-17 1.407e-17
5364.786 3.129e-17 1.404e-17
5365.866 4.019e-17 1.367e-17
5366.945 3.507e-17 1.351e-17
5368.025 3.354e-17 1.329e-17
5369.106 2.11e-17 1.281e-17
5370.186 3.986e-17 1.305e-17
5371.265 4.747e-17 1.353e-17
5372.345 3.29e-17 1.34e-17
5373.425 4.275e-17 1.373e-17
5374.504 4.559e-17 1.369e-17
5375.584 3.232e-17 1.312e-17
5376.664 3.183e-17 1.291e-17
5377.744 2.904e-17 1.264e-17
5378.823 3.945e-17 1.272e-17
5379.903 2.36e-17 1.251e-17
5380.983 3.853e-17 1.281e-17
5382.062 3.097e-17 1.252e-17
5383.142 2.395e-17 1.225e-17
5384.222 3.136e-17 1.257e-17
5385.302 3.8e-17 1.265e-17
5386.38 3.3e-17 1.223e-17
5387.46 3.287e-17 1.232e-17
5388.54 4.037e-17 1.254e-17
5389.618 3.967e-17 1.235e-17
5390.698 2.263e-17 1.173e-17
5391.778 2.751e-17 1.147e-17
5392.857 4.51e-17 1.226e-17
5393.936 5.059e-17 1.283e-17
5395.015 3.765e-17 1.197e-17
5396.095 3.646e-17 1.153e-17
5397.173 2.236e-17 1.15e-17
5398.253 1.607e-17 1.136e-17
5399.332 2.004e-17 1.116e-17
5400.41 3.433e-17 1.155e-17
5401.49 4.771e-17 1.222e-17
5402.569 3.793e-17 1.207e-17
5403.648 3.21e-17 1.149e-17
5404.727 3.563e-17 1.124e-17
5405.806 4.285e-17 1.144e-17
5406.885 3.928e-17 1.13e-17
5407.963 3.008e-17 1.131e-17
5409.042 4.856e-17 1.151e-17
5410.121 3.709e-17 1.098e-17
5411.2 4.316e-17 1.095e-17
5412.278 5.798e-17 1.145e-17
5413.357 4.2e-17 1.16e-17
5414.436 3.315e-17 1.114e-17
5415.514 2.979e-17 1.087e-17
5416.593 2.764e-17 1.118e-17
5417.672 4.133e-17 1.155e-17
5418.751 3.74e-17 1.142e-17
5419.829 4.878e-17 1.107e-17
5420.907 4.517e-17 1.08e-17
5421.986 2.156e-17 1.064e-17
5423.064 2.504e-17 1.054e-17
5424.143 3.229e-17 1.047e-17
5425.221 3.214e-17 1.057e-17
5426.3 3.467e-17 1.076e-17
5427.377 3.159e-17 1.095e-17
5428.456 3.758e-17 1.117e-17
5429.534 3.517e-17 1.11e-17
5430.612 3.597e-17 1.103e-17
5431.69 3.522e-17 1.092e-17
5432.769 3.001e-17 1.052e-17
5433.847 3.155e-17 1.062e-17
5434.924 3.423e-17 1.096e-17
5436.003 3.78e-17 1.086e-17
5437.081 4.139e-17 1.078e-17
5438.158 3.419e-17 1.074e-17
5439.237 3.681e-17 1.074e-17
5440.315 4.423e-17 1.107e-17
5441.393 5.853e-17 1.127e-17
5442.47 5.67e-17 1.108e-17
5443.548 3.35e-17 1.09e-17
5444.626 3.793e-17 1.113e-17
5445.703 4.519e-17 1.117e-17
5446.781 3.335e-17 1.067e-17
5447.859 3.29e-17 1.042e-17
5448.937 3.729e-17 1.055e-17
5450.014 3.911e-17 1.068e-17
5451.092 4.184e-17 1.048e-17
5452.17 4.033e-17 1.005e-17
5453.246 3.668e-17 1.033e-17
5454.324 4.895e-17 1.145e-17
5455.402 3.88e-17 1.153e-17
5456.48 2.487e-17 1.09e-17
5457.556 3.091e-17 1.079e-17
5458.634 4.373e-17 1.184e-17
5459.712 4.358e-17 1.225e-17
5460.788 4.231e-17 1.196e-17
5461.866 4.429e-17 1.194e-17
5462.943 4.141e-17 1.17e-17
5464.021 3.247e-17 1.116e-17
5465.097 3.023e-17 1.066e-17
5466.174 4.054e-17 1.065e-17
5467.252 4.191e-17 1.093e-17
5468.328 4.033e-17 1.112e-17
5469.405 5.056e-17 1.103e-17
5470.483 4.93e-17 1.095e-17
5471.56 4.125e-17 1.074e-17
5472.636 3.469e-17 1.043e-17
5473.713 3.724e-17 1.054e-17
5474.79 5.038e-17 1.064e-17
5475.866 3.976e-17 1.045e-17
5476.944 3.54e-17 1.018e-17
5478.021 3.531e-17 1.031e-17
5479.097 3.965e-17 1.042e-17
5480.174 3.336e-17 1.023e-17
5481.25 3.934e-17 1.028e-17
5482.327 3.888e-17 1.022e-17
5483.403 3.396e-17 1.02e-17
5484.48 3.497e-17 1.07e-17
5485.557 3.82e-17 1.08e-17
5486.633 4.32e-17 1.037e-17
5487.709 4.202e-17 1.005e-17
5488.786 4.591e-17 1.062e-17
5489.863 5.036e-17 1.082e-17
5490.938 4.67e-17 1.03e-17
5492.015 3.549e-17 1.013e-17
5493.091 5.148e-17 1.043e-17
5494.167 5.283e-17 1.045e-17
5495.243 3.635e-17 9.856e-18
5496.32 3.261e-17 9.88e-18
5497.396 3.968e-17 1e-17
5498.472 3.507e-17 9.896e-18
5499.548 5.045e-17 1.006e-17
5500.624 4.981e-17 9.756e-18
5501.699 3.217e-17 9.174e-18
5502.776 2.949e-17 9.133e-18
5503.852 3.264e-17 9.668e-18
5504.928 3.868e-17 9.871e-18
5506.003 4.176e-17 9.493e-18
5507.079 4.519e-17 9.546e-18
5508.155 4.355e-17 9.768e-18
5509.23 4.71e-17 9.647e-18
5510.306 4.607e-17 9.214e-18
5511.382 4.485e-17 9.248e-18
5512.458 4.395e-17 9.527e-18
5513.533 4.992e-17 9.565e-18
5514.609 5.121e-17 9.534e-18
5515.685 4.83e-17 9.535e-18
5516.759 3.811e-17 9.391e-18
5517.835 4.163e-17 8.783e-18
5518.911 3.737e-17 8.571e-18
5519.986 3.656e-17 8.753e-18
5521.061 4.06e-17 8.946e-18
5522.137 4.469e-17 8.86e-18
5523.212 4.221e-17 8.824e-18
5524.287 3.949e-17 8.809e-18
5525.362 4.016e-17 8.425e-18
5526.438 3.747e-17 8.319e-18
5527.513 3.608e-17 8.459e-18
5528.587 3.6e-17 8.417e-18
5529.663 3.403e-17 8.1e-18
5530.738 2.951e-17 8.045e-18
5531.812 3.421e-17 8.168e-18
5532.888 3.682e-17 8.007e-18
5533.963 4.578e-17 8.104e-18
5535.038 4.934e-17 8.511e-18
5536.112 4.448e-17 8.457e-18
5537.187 3.352e-17 7.985e-18
5538.262 3.382e-17 7.878e-18
5539.336 4.211e-17 8.385e-18
5540.411 3.776e-17 8.197e-18
5541.486 3.767e-17 8.022e-18
5542.561 4.17e-17 8.225e-18
5543.635 4.39e-17 8.146e-18
5544.71 4.341e-17 8.219e-18
5545.784 4.011e-17 8.281e-18
5546.858 3.91e-17 8.003e-18
5547.933 4.186e-17 7.883e-18
5549.008 3.769e-17 7.869e-18
5550.082 3.703e-17 7.7e-18
5551.156 3.871e-17 7.651e-18
5552.23 3.555e-17 7.685e-18
5553.305 3.835e-17 7.635e-18
5554.378 3.867e-17 7.657e-18
5555.453 4.156e-17 7.648e-18
5556.527 4.073e-17 7.529e-18
5557.602 3.365e-17 7.477e-18
5558.675 4.517e-17 7.737e-18
5559.749 4.672e-17 7.863e-18
5560.824 4.088e-17 7.716e-18
5561.897 3.913e-17 7.65e-18
5562.971 3.451e-17 7.337e-18
5564.045 2.887e-17 7.175e-18
5565.119 3.197e-17 7.44e-18
5566.192 4.019e-17 7.473e-18
5567.266 4.007e-17 7.447e-18
5568.34 3.687e-17 7.301e-18
5569.413 3.381e-17 7.09e-18
5570.487 3.362e-17 7.283e-18
5571.561 3.931e-17 8.663e-18
5572.635 4.882e-17 1.11e-17
5573.708 4.482e-17 1.236e-17
5574.782 3.134e-17 1.281e-17
5575.855 3.457e-17 1.29e-17
5576.928 4.547e-17 1.288e-17
5578.002 5.038e-17 1.235e-17
5579.075 4.258e-17 1.136e-17
5580.148 3.927e-17 1.025e-17
5581.222 3.6e-17 9.44e-18
5582.295 3.48e-17 8.811e-18
5583.368 3.043e-17 8.133e-18
5584.441 3.048e-17 7.827e-18
5585.514 3.321e-17 8.063e-18
5586.526 4.148e-17 6.709e-18
5588.044 3.284e-17 6.241e-18
5589.564 3.403e-17 6.096e-18
5591.083 3.234e-17 6.161e-18
5592.602 3.023e-17 6.319e-18
5594.121 4.173e-17 6.387e-18
5595.639 3.526e-17 6.377e-18
5597.159 3.675e-17 6.283e-18
5598.679 3.308e-17 6.06e-18
5600.197 3.565e-17 6.057e-18
5601.717 3.643e-17 6.365e-18
5603.235 3.729e-17 6.384e-18
5604.755 4.025e-17 6.373e-18
5606.275 3.653e-17 6.317e-18
5607.793 4.125e-17 6.474e-18
5609.313 3.13e-17 5.785e-18
5610.832 3.335e-17 6.156e-18
5612.351 3.78e-17 6.246e-18
5613.87 3.454e-17 6.055e-18
5615.39 3.575e-17 6.153e-18
5616.91 3.569e-17 6.035e-18
5618.429 4.18e-17 6.283e-18
5619.949 3.528e-17 6.035e-18
5621.468 3.742e-17 6.196e-18
5622.987 3.781e-17 6.308e-18
5624.507 3.822e-17 6.123e-18
5626.026 3.074e-17 6.042e-18
5627.546 2.717e-17 5.664e-18
5629.065 2.878e-17 5.895e-18
5630.586 2.53e-17 5.749e-18
5632.106 4.107e-17 6.068e-18
5633.625 2.746e-17 5.601e-18
5635.145 3.869e-17 6.099e-18
5636.664 2.416e-17 5.643e-18
5638.184 3.676e-17 5.865e-18
5639.704 2.784e-17 5.724e-18
5641.224 3.112e-17 5.897e-18
5642.744 3.388e-17 5.803e-18
5644.263 3.633e-17 6.135e-18
5645.783 4.003e-17 5.904e-18
5647.304 3.158e-17 5.814e-18
5648.823 2.853e-17 5.733e-18
5650.344 3.391e-17 5.924e-18
5651.863 4.14e-17 5.868e-18
5653.383 2.387e-17 5.611e-18
5654.904 2.239e-17 5.429e-18
5656.423 3.698e-17 5.94e-18
5657.944 2.677e-17 5.589e-18
5659.463 3.216e-17 5.744e-18
5660.984 2.471e-17 5.584e-18
5662.503 2.998e-17 5.793e-18
5664.024 2.717e-17 5.688e-18
5665.545 3.356e-17 5.383e-18
5667.064 2.546e-17 5.53e-18
5668.585 3.74e-17 6.028e-18
5670.105 3.645e-17 6.015e-18
5671.625 3.349e-17 5.858e-18
5673.146 2.668e-17 5.623e-18
5674.666 3.423e-17 5.878e-18
5676.187 3.148e-17 5.669e-18
5677.707 2.684e-17 5.627e-18
5679.227 3.138e-17 5.575e-18
5680.748 3.321e-17 5.831e-18
5682.268 2.698e-17 5.613e-18
5683.789 3.547e-17 6.019e-18
5685.309 3.525e-17 6.036e-18
5686.83 3.181e-17 5.761e-18
5688.351 2.061e-17 5.767e-18
5689.871 2.571e-17 5.801e-18
5691.392 3.039e-17 5.811e-18
5692.912 3.468e-17 5.721e-18
5694.433 2.912e-17 5.684e-18
5695.954 3.619e-17 5.631e-18
5697.475 2.836e-17 5.498e-18
5698.996 3.374e-17 5.514e-18
5700.516 3.678e-17 5.689e-18
5702.037 2.441e-17 5.269e-18
5703.557 2.437e-17 5.449e-18
5705.079 3.17e-17 5.536e-18
5706.6 2.377e-17 5.245e-18
5708.12 3.248e-17 5.304e-18
5709.642 2.911e-17 5.315e-18
5711.162 2.659e-17 5.244e-18
5712.683 2.704e-17 5.189e-18
5714.205 2.088e-17 5.009e-18
5715.725 3.284e-17 5.385e-18
5717.247 2.332e-17 5.226e-18
5718.767 3.316e-17 5.427e-18
5720.289 2.863e-17 5.189e-18
5721.81 2.613e-17 5.353e-18
5723.331 3.059e-17 5.382e-18
5724.852 2.986e-17 5.299e-18
5726.373 3.253e-17 5.364e-18
5727.894 2.727e-17 5.202e-18
5729.416 2.861e-17 5.325e-18
5730.937 3.318e-17 5.27e-18
5732.458 2.674e-17 5.154e-18
5733.979 3.117e-17 5.172e-18
5735.501 2.717e-17 5.262e-18
5737.023 2.941e-17 5.116e-18
5738.543 2.705e-17 5.081e-18
5740.065 2.992e-17 5.158e-18
5741.586 3.36e-17 5.34e-18
5743.108 2.6e-17 4.986e-18
5744.63 2.093e-17 5.038e-18
5746.151 2.246e-17 5.149e-18
5747.673 2.544e-17 5.211e-18
5749.194 2.238e-17 5.017e-18
5750.716 2.657e-17 5.144e-18
5752.237 2.497e-17 4.972e-18
5753.759 2.63e-17 5.163e-18
5755.281 2.942e-17 5.05e-18
5756.802 2.274e-17 5.082e-18
5758.324 2.311e-17 5.052e-18
5759.845 2.909e-17 5.253e-18
5761.367 2.678e-17 5.03e-18
5762.889 2.885e-17 5.196e-18
5764.411 3.06e-17 5.352e-18
5765.933 2.196e-17 5.295e-18
5767.454 2.749e-17 5.392e-18
5768.976 2.302e-17 5.153e-18
5770.499 2.801e-17 5.455e-18
5772.02 2.731e-17 5.193e-18
5773.542 3.148e-17 5.348e-18
5775.064 2.788e-17 5.121e-18
5776.586 2.574e-17 5.288e-18
5778.108 2.203e-17 4.982e-18
5779.63 2.439e-17 4.987e-18
5781.152 2.186e-17 5.05e-18
5782.674 2.644e-17 5.129e-18
5784.196 2.69e-17 5.044e-18
5785.719 3.54e-17 5.346e-18
5787.24 2.692e-17 5.169e-18
5788.763 2.034e-17 5.104e-18
5790.285 2.55e-17 5.208e-18
5791.807 2.969e-17 5.253e-18
5793.329 2.039e-17 4.981e-18
5794.851 2.444e-17 5.158e-18
5796.374 3.544e-17 5.407e-18
5797.896 3.013e-17 5.251e-18
5799.419 2.997e-17 4.955e-18
5800.94 2.664e-17 5.126e-18
5802.463 2.83e-17 5.046e-18
5803.986 2.592e-17 5.119e-18
5805.508 2.562e-17 5.058e-18
5807.031 2.858e-17 4.922e-18
5808.553 2.512e-17 4.94e-18
5810.076 3.581e-17 5.271e-18
5811.598 2.827e-17 5.071e-18
5813.12 2.626e-17 5.116e-18
5814.643 3.423e-17 5.165e-18
5816.165 2.565e-17 5.004e-18
5817.688 2.411e-17 4.955e-18
5819.211 2.386e-17 4.95e-18
5820.734 2.247e-17 4.871e-18
5822.257 2.103e-17 4.84e-18
5823.779 2.869e-17 5.017e-18
5825.302 2.132e-17 4.997e-18
5826.825 2.854e-17 5.019e-18
5828.347 2.173e-17 4.952e-18
5829.87 3.183e-17 5.314e-18
5831.393 2.611e-17 4.968e-18
5832.916 2.616e-17 5.049e-18
5834.438 2.83e-17 5.064e-18
5835.962 2.787e-17 4.992e-18
5837.485 2.958e-17 5.014e-18
5839.007 3.005e-17 5.206e-18
5840.531 2.168e-17 4.99e-18
5842.053 2.911e-17 5.121e-18
5843.576 3.401e-17 5.078e-18
5845.1 2.811e-17 5.025e-18
5846.622 2.334e-17 4.952e-18
5848.146 2.708e-17 5.048e-18
5849.668 2.464e-17 5.023e-18
5851.192 2.817e-17 5.097e-18
5852.715 2.523e-17 4.964e-18
5854.238 2.393e-17 4.865e-18
5855.762 2.627e-17 5.099e-18
5857.284 3.297e-17 5.212e-18
5858.808 3.438e-17 5.233e-18
5860.332 3.072e-17 5.133e-18
5861.854 2.816e-17 5.287e-18
5863.378 3.501e-17 5.625e-18
5864.901 2.939e-17 5.622e-18
5866.424 2.207e-17 5.633e-18
5867.947 3.38e-17 5.68e-18
5869.471 2.217e-17 5.328e-18
5870.995 2.576e-17 5.358e-18
5872.518 2.765e-17 5.38e-18
5874.042 2.497e-17 5.294e-18
5875.565 2.771e-17 5.369e-18
5877.088 3.721e-17 5.399e-18
5878.612 3.117e-17 5.15e-18
5880.135 3.176e-17 5.171e-18
5881.659 3.091e-17 5.222e-18
5883.182 3.269e-17 5.472e-18
5884.706 3.079e-17 6.541e-18
5886.231 2.138e-17 7.29e-18
5887.754 3.246e-17 8.029e-18
5889.278 1.913e-17 8.179e-18
5890.801 2.742e-17 8.357e-18
5892.325 3.913e-17 8.118e-18
5893.849 2.888e-17 7.685e-18
5895.372 3.267e-17 7.707e-18
5896.897 2.935e-17 7.131e-18
5898.42 2.529e-17 6.153e-18
5899.944 2.734e-17 5.634e-18
5901.468 2.701e-17 5.456e-18
5902.992 3.899e-17 5.456e-18
5904.516 2.615e-17 5.26e-18
5906.04 2.924e-17 5.271e-18
5907.564 3.139e-17 5.38e-18
5909.087 2.373e-17 5.02e-18
5910.612 3.332e-17 5.222e-18
5912.136 4.063e-17 5.623e-18
5913.66 2.872e-17 5.504e-18
5915.184 3.37e-17 5.654e-18
5916.708 3.591e-17 5.522e-18
5918.232 2.931e-17 5.185e-18
5919.757 3.73e-17 5.57e-18
5921.28 3.173e-17 5.141e-18
5922.805 3.414e-17 5.392e-18
5924.329 3.029e-17 5.43e-18
5925.853 3.222e-17 5.308e-18
5927.378 2.969e-17 5.225e-18
5928.902 2.845e-17 5.432e-18
5930.426 2.951e-17 5.547e-18
5931.95 2.31e-17 5.376e-18
5933.475 2.868e-17 5.628e-18
5935.0 2.978e-17 5.375e-18
5936.524 3.303e-17 5.314e-18
5938.048 2.608e-17 5.205e-18
5939.572 3.057e-17 5.175e-18
5941.097 3.229e-17 5.23e-18
5942.621 2.917e-17 5.193e-18
5944.146 3.299e-17 5.335e-18
5945.671 2.815e-17 5.312e-18
5947.195 2.535e-17 5.32e-18
5948.72 3.683e-17 5.393e-18
5950.244 3.036e-17 5.345e-18
5951.769 3.006e-17 5.448e-18
5953.294 3.787e-17 5.649e-18
5954.818 2.779e-17 5.193e-18
5956.343 3.191e-17 5.352e-18
5957.867 2.27e-17 5.023e-18
5959.392 3.392e-17 5.173e-18
5960.918 3.389e-17 5.212e-18
5962.442 2.654e-17 5.064e-18
5963.967 2.4e-17 4.987e-18
5965.491 3.236e-17 5.206e-18
5967.017 2.685e-17 4.952e-18
5968.542 3.133e-17 5.166e-18
5970.066 2.467e-17 5.175e-18
5971.592 2.491e-17 5.085e-18
5973.116 3.173e-17 5.168e-18
5974.641 2.812e-17 5.179e-18
5976.167 2.744e-17 5.168e-18
5977.691 3.326e-17 5.247e-18
5979.217 3.228e-17 5.346e-18
5980.741 2.787e-17 5.089e-18
5982.266 3.659e-17 5.237e-18
5983.791 2.648e-17 4.989e-18
5985.317 3.146e-17 5.101e-18
5986.842 2.938e-17 5.165e-18
5988.367 2.592e-17 4.75e-18
5989.892 3.078e-17 5.045e-18
5991.417 2.581e-17 4.974e-18
5992.943 3.052e-17 5.134e-18
5994.468 3.072e-17 5.046e-18
5995.993 2.978e-17 5.094e-18
5997.519 2.957e-17 5.036e-18
5999.043 2.831e-17 5.08e-18
6000.569 2.711e-17 5.107e-18
6002.095 3.253e-17 5.188e-18
6003.62 2.322e-17 5.03e-18
6005.145 2.767e-17 5.212e-18
6006.67 2.62e-17 4.916e-18
6008.196 2.111e-17 4.986e-18
6009.722 1.755e-17 4.727e-18
6011.247 1.499e-17 4.504e-18
6012.773 2.322e-17 4.803e-18
6014.298 2.979e-17 5.012e-18
6015.824 2.451e-17 4.918e-18
6017.349 2.587e-17 4.91e-18
6018.875 3.116e-17 4.88e-18
6020.401 2.274e-17 4.859e-18
6021.926 2.698e-17 4.973e-18
6023.452 2.411e-17 4.929e-18
6024.977 2.997e-17 5.006e-18
6026.503 2.85e-17 4.979e-18
6028.029 2.189e-17 4.921e-18
6029.555 1.489e-17 4.86e-18
6031.081 2.254e-17 4.792e-18
6032.606 2.439e-17 4.961e-18
6034.132 2.049e-17 4.738e-18
6035.658 1.596e-17 4.691e-18
6037.184 1.569e-17 4.695e-18
6038.71 2.442e-17 4.915e-18
6040.235 2.791e-17 4.841e-18
6041.762 2.376e-17 4.742e-18
6043.288 3.115e-17 5.004e-18
6044.813 2.885e-17 4.796e-18
6046.34 3.45e-17 5.092e-18
6047.865 2.556e-17 5.062e-18
6049.392 3.046e-17 4.901e-18
6050.917 2.929e-17 4.696e-18
6052.444 2.878e-17 4.976e-18
6053.97 2.855e-17 4.786e-18
6055.496 2.589e-17 4.815e-18
6057.022 2.15e-17 4.699e-18
6058.548 2.392e-17 4.801e-18
6060.075 2.997e-17 4.894e-18
6061.601 2.153e-17 4.703e-18
6063.127 2.769e-17 4.858e-18
6064.653 2.073e-17 4.755e-18
6066.179 2.342e-17 4.697e-18
6067.706 3.75e-17 5.149e-18
6069.233 2.231e-17 4.723e-18
6070.758 2.39e-17 4.628e-18
6072.285 2.721e-17 4.98e-18
6073.811 2.67e-17 4.596e-18
6075.338 3.491e-17 5.028e-18
6076.865 2.939e-17 4.769e-18
6078.39 2.728e-17 4.687e-18
6079.917 3.107e-17 4.726e-18
6081.443 2.586e-17 4.77e-18
6082.97 2.347e-17 4.685e-18
6084.496 2.025e-17 4.574e-18
6086.023 2.717e-17 4.694e-18
6087.55 3.461e-17 4.884e-18
6089.076 2.807e-17 4.766e-18
6090.603 2.76e-17 4.664e-18
6092.129 2.276e-17 4.624e-18
6093.656 2.609e-17 4.663e-18
6095.183 2.389e-17 4.738e-18
6096.71 2.637e-17 4.878e-18
6098.237 2.873e-17 4.624e-18
6099.763 2.299e-17 4.714e-18
6101.29 2.902e-17 4.902e-18
6102.817 3.375e-17 4.944e-18
6104.343 2.865e-17 4.726e-18
6105.871 2.759e-17 5.008e-18
6107.397 2.924e-17 4.885e-18
6108.924 3.395e-17 4.921e-18
6110.452 2.757e-17 4.859e-18
6111.978 2.916e-17 4.957e-18
6113.505 3.019e-17 4.91e-18
6115.032 2.305e-17 4.819e-18
6116.559 2.715e-17 4.764e-18
6118.085 2.807e-17 4.81e-18
6119.613 3.127e-17 4.789e-18
6121.14 2.348e-17 4.542e-18
6122.667 3.026e-17 4.633e-18
6124.194 2.075e-17 4.609e-18
6125.721 2.708e-17 4.518e-18
6127.248 2.857e-17 4.745e-18
6128.776 2.099e-17 4.42e-18
6130.303 2.376e-17 4.42e-18
6131.83 2.633e-17 4.533e-18
6133.357 2.926e-17 4.703e-18
6134.884 3.087e-17 4.756e-18
6136.412 2.358e-17 4.669e-18
6137.939 2.598e-17 4.604e-18
6139.467 3.029e-17 4.849e-18
6140.993 2.562e-17 4.629e-18
6142.521 3.345e-17 4.883e-18
6144.048 3e-17 4.75e-18
6145.576 2.267e-17 4.477e-18
6147.103 3.331e-17 4.735e-18
6148.63 2.314e-17 4.562e-18
6150.158 2.735e-17 4.532e-18
6151.685 3.396e-17 4.756e-18
6153.213 2.561e-17 4.611e-18
6154.741 2.952e-17 4.639e-18
6156.268 2.186e-17 4.373e-18
6157.796 3.19e-17 4.697e-18
6159.323 3.253e-17 4.637e-18
6160.851 3.642e-17 4.724e-18
6162.379 3.514e-17 4.582e-18
6163.906 2.884e-17 4.462e-18
6165.434 2.365e-17 4.362e-18
6166.961 2.743e-17 4.583e-18
6168.489 3.196e-17 4.725e-18
6170.017 2.469e-17 4.6e-18
6171.544 2.726e-17 4.556e-18
6173.073 3.078e-17 4.753e-18
6174.6 2.746e-17 4.512e-18
6176.128 2.959e-17 4.597e-18
6177.655 2.379e-17 4.44e-18
6179.184 1.99e-17 4.169e-18
6180.712 2.199e-17 4.408e-18
6182.239 2.519e-17 4.397e-18
6183.767 2.755e-17 4.352e-18
6185.295 2.98e-17 4.652e-18
6186.823 2.473e-17 4.409e-18
6188.352 3.287e-17 4.711e-18
6189.879 3.161e-17 4.604e-18
6191.407 2.773e-17 4.516e-18
6192.935 2.518e-17 4.373e-18
6194.463 3.28e-17 4.659e-18
6195.992 2.833e-17 4.426e-18
6197.519 2.28e-17 4.376e-18
6199.048 3.264e-17 4.564e-18
6200.575 3.392e-17 4.682e-18
6202.104 2.87e-17 4.729e-18
6203.632 2.678e-17 4.665e-18
6205.16 3.083e-17 4.652e-18
6206.689 2.628e-17 4.557e-18
6208.216 3.534e-17 4.731e-18
6209.745 3.06e-17 4.603e-18
6211.273 3.02e-17 4.418e-18
6212.801 3.454e-17 4.541e-18
6214.33 2.635e-17 4.423e-18
6215.858 2.365e-17 4.375e-18
6217.387 3.163e-17 4.705e-18
6218.914 3.089e-17 4.717e-18
6220.443 3.471e-17 4.876e-18
6221.972 3.334e-17 4.617e-18
6223.5 2.479e-17 4.472e-18
6225.029 3.207e-17 4.607e-18
6226.557 2.761e-17 4.359e-18
6228.086 3.277e-17 4.603e-18
6229.615 3.217e-17 4.584e-18
6231.143 2.625e-17 4.903e-18
6232.672 2.505e-17 5.211e-18
6234.2 3.697e-17 5.41e-18
6235.729 3.072e-17 5.364e-18
6237.257 2.584e-17 5.363e-18
6238.786 2.788e-17 5.123e-18
6240.315 3.06e-17 4.921e-18
6241.843 3.907e-17 5.077e-18
6243.372 3.177e-17 4.691e-18
6244.9 2.864e-17 4.611e-18
6246.429 3.6e-17 4.537e-18
6247.958 2.571e-17 4.507e-18
6249.487 2.867e-17 4.438e-18
6251.016 3.113e-17 4.543e-18
6252.544 2.711e-17 4.63e-18
6254.073 2.937e-17 4.851e-18
6255.603 3.207e-17 5.228e-18
6257.131 3.715e-17 5.298e-18
6258.66 4.092e-17 5.216e-18
6260.189 3.661e-17 5.132e-18
6261.718 3.651e-17 4.923e-18
6263.247 3.679e-17 4.92e-18
6264.776 2.884e-17 4.724e-18
6266.305 3.456e-17 4.666e-18
6267.834 3.203e-17 4.544e-18
6269.363 3.232e-17 4.522e-18
6270.892 2.82e-17 4.436e-18
6272.421 3.589e-17 4.619e-18
6273.951 3.546e-17 4.63e-18
6275.479 4.09e-17 4.93e-18
6277.009 2.965e-17 4.79e-18
6278.537 2.921e-17 4.679e-18
6280.067 3.047e-17 4.699e-18
6281.597 2.901e-17 4.549e-18
6283.125 3.181e-17 4.695e-18
6284.655 3.281e-17 5.169e-18
6286.184 4.112e-17 5.29e-18
6287.713 3.032e-17 5.09e-18
6289.243 3.018e-17 4.85e-18
6290.772 2.712e-17 4.585e-18
6292.301 3.026e-17 4.551e-18
6293.83 3.447e-17 4.833e-18
6295.36 3.342e-17 5.818e-18
6296.889 3.211e-17 6.932e-18
6298.419 3.214e-17 7.541e-18
6299.949 3.372e-17 7.55e-18
6301.477 2.813e-17 6.837e-18
6303.007 3.665e-17 6.116e-18
6304.536 2.903e-17 5.648e-18
6306.066 3.098e-17 5.353e-18
6307.596 2.852e-17 5.04e-18
6309.125 3.167e-17 4.897e-18
6310.655 3.448e-17 4.544e-18
6312.184 3.241e-17 4.383e-18
6313.714 3.207e-17 4.37e-18
6315.244 3.29e-17 4.397e-18
6316.773 3.396e-17 4.435e-18
6318.304 3.483e-17 4.562e-18
6319.833 3.597e-17 4.673e-18
6321.363 4.005e-17 4.751e-18
6322.892 2.546e-17 4.454e-18
6324.422 3.166e-17 4.508e-18
6325.952 3.636e-17 4.84e-18
6327.482 2.305e-17 4.717e-18
6329.012 3.137e-17 4.802e-18
6330.541 3.908e-17 4.935e-18
6332.071 2.895e-17 4.454e-18
6333.602 2.905e-17 4.29e-18
6335.131 3.524e-17 4.449e-18
6336.661 3.804e-17 4.369e-18
6338.191 2.794e-17 4.236e-18
6339.721 3.999e-17 4.352e-18
6341.251 3.333e-17 4.237e-18
6342.781 3.045e-17 4.348e-18
6344.311 3.73e-17 4.443e-18
6345.841 3.318e-17 4.339e-18
6347.371 2.941e-17 4.422e-18
6348.902 3.55e-17 4.325e-18
6350.431 2.741e-17 4.218e-18
6351.962 3.587e-17 4.574e-18
6353.491 2.73e-17 4.479e-18
6355.022 4.255e-17 4.851e-18
6356.551 2.942e-17 4.585e-18
6358.082 3.555e-17 4.735e-18
6359.613 3.322e-17 4.957e-18
6361.142 3.056e-17 5.225e-18
6362.673 3.379e-17 5.387e-18
6364.203 2.852e-17 5.219e-18
6365.733 2.874e-17 4.876e-18
6367.264 2.626e-17 4.342e-18
6368.794 3.661e-17 4.403e-18
6370.325 3.072e-17 4.27e-18
6371.854 2.557e-17 4.01e-18
6373.385 3.296e-17 4.185e-18
6374.916 3.744e-17 4.316e-18
6376.446 2.789e-17 4.294e-18
6377.977 2.378e-17 3.959e-18
6379.507 2.987e-17 4.188e-18
6381.038 2.448e-17 4.204e-18
6382.567 3.148e-17 4.394e-18
6384.098 3.475e-17 4.496e-18
6385.629 2.588e-17 4.324e-18
6387.159 3.059e-17 4.392e-18
6388.69 3.018e-17 4.221e-18
6390.22 3.608e-17 4.348e-18
6391.751 3.915e-17 4.362e-18
6393.282 2.994e-17 4.139e-18
6394.812 3.623e-17 4.335e-18
6396.344 3.599e-17 4.288e-18
6397.874 2.981e-17 4.192e-18
6399.405 3.024e-17 4.139e-18
6400.936 3.072e-17 4.196e-18
6402.466 3.775e-17 4.222e-18
6403.997 3.066e-17 4.206e-18
6405.528 2.698e-17 4.179e-18
6407.059 3.067e-17 4.009e-18
6408.589 3.123e-17 4.267e-18
6410.12 2.666e-17 4.2e-18
6411.652 3.07e-17 4.272e-18
6413.182 2.844e-17 4.211e-18
6414.713 2.782e-17 4.223e-18
6416.244 2.822e-17 4.186e-18
6417.775 3.453e-17 4.452e-18
6419.306 3.379e-17 4.432e-18
6420.837 3.063e-17 4.367e-18
6422.368 2.682e-17 4.198e-18
6423.898 3.272e-17 4.245e-18
6425.43 3.033e-17 4.15e-18
6426.961 3.046e-17 4.181e-18
6428.492 3.153e-17 4.206e-18
6430.023 2.689e-17 4.145e-18
6431.554 3.183e-17 4.11e-18
6433.086 2.88e-17 4.1e-18
6434.616 2.822e-17 3.947e-18
6436.148 3.035e-17 4.093e-18
6437.679 2.909e-17 4.248e-18
6439.21 2.72e-17 3.996e-18
6440.742 3.525e-17 4.2e-18
6442.272 3.189e-17 4.184e-18
6443.804 2.369e-17 3.892e-18
6445.336 3.375e-17 4.257e-18
6446.866 3.14e-17 4.117e-18
6448.398 3.262e-17 4.262e-18
6449.929 3.431e-17 4.262e-18
6451.461 3.438e-17 4.231e-18
6452.992 3.376e-17 4.171e-18
6454.523 3.105e-17 4.225e-18
6456.055 2.795e-17 4.21e-18
6457.586 3.155e-17 4.218e-18
6459.118 3.071e-17 4.276e-18
6460.649 3.142e-17 4.36e-18
6462.181 3.032e-17 4.687e-18
6463.712 2.335e-17 4.549e-18
6465.243 3.667e-17 4.831e-18
6466.775 2.829e-17 4.732e-18
6468.306 3.008e-17 4.667e-18
6469.838 3.627e-17 4.734e-18
6471.37 3.831e-17 4.764e-18
6472.901 2.966e-17 4.321e-18
6474.433 3.129e-17 4.339e-18
6475.965 2.235e-17 4.101e-18
6477.497 3.152e-17 4.278e-18
6479.029 2.851e-17 4.069e-18
6480.56 2.929e-17 4.152e-18
6482.092 3.135e-17 3.994e-18
6483.623 2.401e-17 3.824e-18
6485.155 2.797e-17 4.033e-18
6486.687 3.309e-17 4.104e-18
6488.219 3.168e-17 4.007e-18
6489.751 2.836e-17 4.04e-18
6491.282 3.356e-17 4.185e-18
6492.815 2.92e-17 4.111e-18
6494.346 3.205e-17 4.598e-18
6495.878 3.025e-17 4.915e-18
6497.41 3.558e-17 5.037e-18
6498.942 3.63e-17 5.155e-18
6500.474 3.156e-17 4.785e-18
6502.006 2.83e-17 4.418e-18
6503.538 4.293e-17 4.584e-18
6505.07 3.246e-17 4.371e-18
6506.602 3.302e-17 4.19e-18
6508.134 3.572e-17 4.246e-18
6509.666 3.452e-17 4.249e-18
6511.198 2.802e-17 4.016e-18
6512.73 3.704e-17 4.187e-18
6514.262 3.166e-17 4.048e-18
6515.795 3.294e-17 4.139e-18
6517.326 3.511e-17 4.141e-18
6518.859 2.932e-17 4.063e-18
6520.391 2.907e-17 4.179e-18
6521.923 3.136e-17 4.294e-18
6523.456 3.373e-17 4.363e-18
6524.988 3.25e-17 4.225e-18
6526.52 3.751e-17 4.205e-18
6528.052 2.983e-17 4.253e-18
6529.585 3.574e-17 4.834e-18
6531.117 2.883e-17 4.746e-18
6532.649 3.036e-17 4.862e-18
6534.182 3.216e-17 4.768e-18
6535.714 3.356e-17 4.407e-18
6537.247 3.691e-17 4.197e-18
6538.778 3.193e-17 4.165e-18
6540.311 3.107e-17 4.118e-18
6541.844 3.764e-17 4.464e-18
6543.376 3.05e-17 4.355e-18
6544.909 3.324e-17 4.224e-18
6546.441 3.182e-17 4.071e-18
6547.974 3.613e-17 4.223e-18
6549.507 3.773e-17 4.573e-18
6551.039 3.15e-17 4.784e-18
6552.572 3.589e-17 4.981e-18
6554.104 3.617e-17 4.924e-18
6555.637 3.144e-17 4.346e-18
6557.17 3.653e-17 4.313e-18
6558.702 3.586e-17 4.404e-18
6560.235 3.824e-17 4.436e-18
6561.767 2.659e-17 4.324e-18
6563.3 3.38e-17 4.395e-18
6564.832 3.273e-17 4.281e-18
6566.365 3.54e-17 4.365e-18
6567.899 2.769e-17 4.056e-18
6569.431 3.436e-17 4.163e-18
6570.964 2.833e-17 3.987e-18
6572.496 3.745e-17 4.273e-18
6574.029 3.311e-17 4.459e-18
6575.563 4.1e-17 4.598e-18
6577.095 3.499e-17 4.58e-18
6578.628 3.246e-17 4.414e-18
6580.161 3.32e-17 4.064e-18
6581.694 2.832e-17 3.767e-18
6583.227 3.353e-17 3.915e-18
6584.76 2.912e-17 3.746e-18
6586.293 3.242e-17 3.883e-18
6587.825 3.529e-17 3.827e-18
6589.359 3.103e-17 3.728e-18
6590.891 3.378e-17 3.849e-18
6592.425 2.64e-17 3.763e-18
6593.958 2.947e-17 3.744e-18
6595.491 3.061e-17 3.888e-18
6597.024 2.98e-17 3.925e-18
6598.557 3.448e-17 3.942e-18
6600.09 3.605e-17 4.242e-18
6601.624 3.102e-17 4.079e-18
6603.156 2.929e-17 4.102e-18
6604.69 3.253e-17 4.133e-18
6606.223 2.89e-17 3.866e-18
6607.756 3.374e-17 3.803e-18
6609.29 3.163e-17 3.799e-18
6610.822 3.118e-17 3.697e-18
6612.356 3.319e-17 3.851e-18
6613.889 2.529e-17 3.646e-18
6615.423 3.072e-17 3.782e-18
6616.955 3.181e-17 3.883e-18
6618.489 2.328e-17 3.687e-18
6620.023 3.173e-17 3.844e-18
6621.556 3.611e-17 3.914e-18
6623.089 3.031e-17 3.796e-18
6624.622 3.776e-17 3.909e-18
6626.156 2.563e-17 3.74e-18
6627.69 2.628e-17 3.693e-18
6629.223 3.301e-17 3.898e-18
6630.757 2.696e-17 3.818e-18
6632.29 3.422e-17 3.901e-18
6633.824 2.852e-17 3.88e-18
6635.357 2.803e-17 3.765e-18
6636.89 3.219e-17 3.855e-18
6638.424 2.946e-17 3.683e-18
6639.957 3.054e-17 3.702e-18
6641.491 2.95e-17 3.709e-18
6643.024 2.625e-17 3.671e-18
6644.558 3.171e-17 3.749e-18
6646.093 3.251e-17 3.735e-18
6647.626 2.865e-17 3.544e-18
6649.16 2.976e-17 3.757e-18
6650.693 3.432e-17 3.74e-18
6652.227 3.04e-17 3.716e-18
6653.761 2.697e-17 3.676e-18
6655.294 3.173e-17 3.742e-18
6656.829 3.241e-17 3.798e-18
6658.362 3.454e-17 3.888e-18
6659.896 2.847e-17 3.726e-18
6661.43 3.128e-17 3.848e-18
6662.963 3.115e-17 3.883e-18
6664.498 3.117e-17 3.891e-18
6666.031 2.948e-17 3.73e-18
6667.565 2.769e-17 3.84e-18
6669.099 2.962e-17 3.635e-18
6670.633 3.073e-17 3.734e-18
6672.167 2.938e-17 3.671e-18
6673.701 2.888e-17 3.706e-18
6675.235 2.975e-17 3.756e-18
6676.769 2.715e-17 3.65e-18
6678.303 2.918e-17 3.74e-18
6679.837 2.829e-17 3.656e-18
6681.371 2.972e-17 3.751e-18
6682.905 3.624e-17 3.851e-18
6684.439 2.774e-17 3.66e-18
6685.973 2.802e-17 3.707e-18
6687.507 3.218e-17 3.769e-18
6689.041 2.836e-17 3.69e-18
6690.576 2.9e-17 3.691e-18
6692.11 2.791e-17 3.668e-18
6693.644 3.03e-17 3.658e-18
6695.178 2.984e-17 3.819e-18
6696.712 3.794e-17 4.039e-18
6698.247 2.486e-17 3.721e-18
6699.781 2.297e-17 3.812e-18
6701.315 2.89e-17 3.752e-18
6702.849 2.904e-17 3.724e-18
6704.384 2.881e-17 3.877e-18
6705.919 3.122e-17 3.836e-18
6707.452 2.766e-17 3.754e-18
6708.987 2.837e-17 3.833e-18
6710.521 2.722e-17 3.747e-18
6712.056 3.352e-17 3.952e-18
6713.589 2.885e-17 3.789e-18
6715.124 2.737e-17 3.724e-18
6716.659 2.149e-17 3.569e-18
6718.193 3.177e-17 3.817e-18
6719.728 2.647e-17 3.733e-18
6721.262 2.986e-17 3.717e-18
6722.797 2.784e-17 3.701e-18
6724.332 2.804e-17 3.717e-18
6725.866 2.612e-17 3.624e-18
6727.401 2.882e-17 3.737e-18
6728.935 2.338e-17 3.663e-18
6730.47 3.623e-17 3.84e-18
6732.005 2.532e-17 3.642e-18
6733.539 3.079e-17 3.723e-18
6735.074 2.584e-17 3.637e-18
6736.608 3.048e-17 3.664e-18
6738.143 2.75e-17 3.636e-18
6739.677 2.922e-17 3.774e-18
6741.212 2.961e-17 3.648e-18
6742.747 2.076e-17 3.529e-18
6744.281 2.546e-17 3.68e-18
6745.817 2.641e-17 3.619e-18
6747.351 2.48e-17 3.599e-18
6748.886 2.507e-17 3.55e-18
6750.421 2.248e-17 3.536e-18
6751.955 1.969e-17 3.427e-18
6753.491 2.749e-17 3.659e-18
6755.025 2.487e-17 3.545e-18
6756.56 2.827e-17 3.68e-18
6758.095 2.714e-17 3.645e-18
6759.63 3.203e-17 3.655e-18
6761.165 2.68e-17 3.522e-18
6762.699 2.1e-17 3.446e-18
6764.235 2.707e-17 3.53e-18
6765.769 2.553e-17 3.476e-18
6767.305 2.466e-17 3.587e-18
6768.84 2.453e-17 3.477e-18
6770.374 2.633e-17 3.569e-18
6771.91 2.787e-17 3.57e-18
6773.444 3.152e-17 3.739e-18
6774.98 2.858e-17 3.555e-18
6776.515 2.473e-17 3.468e-18
6778.05 2.37e-17 3.49e-18
6779.585 2.434e-17 3.402e-18
6781.12 2.958e-17 3.578e-18
6782.656 2.766e-17 3.548e-18
6784.19 2.311e-17 3.404e-18
6785.726 2.681e-17 3.514e-18
6787.261 2.652e-17 3.577e-18
6788.796 2.082e-17 3.325e-18
6790.332 1.959e-17 3.312e-18
6791.866 1.698e-17 3.242e-18
6793.402 1.992e-17 3.208e-18
6794.938 2.245e-17 3.368e-18
6796.472 2.993e-17 3.588e-18
6798.008 2.394e-17 3.4e-18
6799.543 2.324e-17 3.355e-18
6801.079 2.595e-17 3.415e-18
6802.614 2.002e-17 3.281e-18
6804.149 2.004e-17 3.186e-18
6805.685 1.98e-17 3.315e-18
6807.22 2.236e-17 3.338e-18
6808.756 1.691e-17 3.164e-18
6810.29 2.815e-17 3.425e-18
6811.826 2.487e-17 3.405e-18
6813.362 2.089e-17 3.3e-18
6814.897 2.5e-17 3.417e-18
6816.433 2.289e-17 3.343e-18
6817.968 2.119e-17 3.285e-18
6819.504 1.961e-17 3.267e-18
6821.04 2.072e-17 3.342e-18
6822.575 1.741e-17 3.342e-18
6824.111 1.975e-17 3.834e-18
6825.646 1.597e-17 4.43e-18
6827.182 2.496e-17 4.767e-18
6828.717 2.478e-17 4.867e-18
6830.253 1.941e-17 4.959e-18
6831.789 2.394e-17 4.777e-18
6833.324 1.711e-17 4.557e-18
6834.86 2.121e-17 4.42e-18
6836.395 2.182e-17 3.998e-18
6837.932 2.238e-17 3.794e-18
6839.468 2.11e-17 3.779e-18
6841.003 2.077e-17 3.578e-18
6842.539 2.117e-17 3.553e-18
6844.074 2.331e-17 3.479e-18
6845.611 1.999e-17 3.292e-18
6847.147 1.718e-17 3.238e-18
6848.682 2.21e-17 3.315e-18
6850.218 2.189e-17 3.414e-18
6851.754 2.274e-17 3.262e-18
6853.29 1.507e-17 3.075e-18
6854.825 1.999e-17 3.249e-18
6856.362 1.794e-17 3.145e-18
6857.898 2.12e-17 3.517e-18
6859.433 1.944e-17 4.368e-18
6860.97 2.612e-17 5.108e-18
6862.505 2.245e-17 5.559e-18
6864.042 2.183e-17 5.679e-18
6865.578 1.366e-17 5.287e-18
6867.113 2.027e-17 5.025e-18
6868.65 2.721e-17 4.991e-18
6870.185 2.618e-17 4.869e-18
6871.722 2.566e-17 4.622e-18
6873.258 2.799e-17 4.371e-18
6874.794 2.536e-17 4.014e-18
6876.33 2.097e-17 3.872e-18
6877.866 1.975e-17 3.799e-18
6879.403 2.366e-17 3.806e-18
6880.938 2.608e-17 3.796e-18
6882.475 2.142e-17 3.731e-18
6884.011 2.214e-17 3.796e-18
6885.547 3.078e-17 4.268e-18
6887.084 1.928e-17 4.056e-18
6888.619 2.025e-17 4.154e-18
6890.156 2.174e-17 3.974e-18
6891.693 2.154e-17 3.899e-18
6893.228 2.122e-17 3.694e-18
6894.765 1.907e-17 3.477e-18
6896.301 2.053e-17 3.826e-18
6897.838 3.311e-17 4.261e-18
6899.373 2.738e-17 4.078e-18
6900.91 2.454e-17 4.016e-18
6902.447 2.214e-17 3.758e-18
6903.983 1.66e-17 3.364e-18
6905.52 1.963e-17 3.496e-18
6907.055 3.026e-17 3.793e-18
6908.592 1.933e-17 3.818e-18
6910.129 2.875e-17 4.278e-18
6911.665 2.813e-17 4.177e-18
6913.202 2.166e-17 3.991e-18
6914.738 2.243e-17 3.714e-18
6916.275 2.492e-17 3.51e-18
6917.812 2.128e-17 3.674e-18
6919.348 1.809e-17 4.174e-18
6920.885 2.572e-17 4.536e-18
6922.421 2.391e-17 4.684e-18
6923.958 2.249e-17 4.468e-18
6925.494 2.58e-17 4e-18
6927.031 2.003e-17 3.548e-18
6928.568 2.379e-17 3.484e-18
6930.104 2.479e-17 3.357e-18
6931.641 2.097e-17 3.382e-18
6933.177 2.102e-17 3.427e-18
6934.714 2.647e-17 3.732e-18
6936.252 1.974e-17 3.932e-18
6937.788 2.925e-17 4.179e-18
6939.325 2.399e-17 4.05e-18
6940.861 2.653e-17 4.055e-18
6942.398 2.493e-17 3.608e-18
6943.934 2.554e-17 3.899e-18
6945.472 2.533e-17 4.473e-18
6947.009 1.619e-17 4.667e-18
6948.545 2.697e-17 4.979e-18
6950.082 2.317e-17 4.56e-18
6951.619 2.783e-17 4.072e-18
6953.156 2.133e-17 3.595e-18
6954.693 2.46e-17 3.554e-18
6956.23 2.964e-17 3.592e-18
6957.767 2.176e-17 3.434e-18
6959.303 2.885e-17 3.534e-18
6960.841 2.031e-17 3.407e-18
6962.378 2.524e-17 3.466e-18
6963.915 2.229e-17 3.38e-18
6965.452 2.298e-17 3.697e-18
6966.989 2.48e-17 3.903e-18
6968.526 2.362e-17 3.859e-18
6970.062 2.687e-17 3.832e-18
6971.6 2.238e-17 3.648e-18
6973.137 2.447e-17 3.796e-18
6974.674 2.893e-17 4.261e-18
6976.211 2.844e-17 4.324e-18
6977.748 3.318e-17 4.47e-18
6979.286 2.269e-17 4.187e-18
6980.823 2.574e-17 3.688e-18
6982.36 2.629e-17 3.655e-18
6983.897 2.298e-17 3.43e-18
6985.434 2.319e-17 3.341e-18
6986.972 2.669e-17 3.533e-18
6988.508 2.529e-17 3.535e-18
6990.046 2.261e-17 3.438e-18
6991.584 2.793e-17 3.499e-18
6993.12 2.418e-17 3.422e-18
6994.658 2.791e-17 3.531e-18
6996.195 2.751e-17 3.5e-18
6997.732 2.95e-17 3.624e-18
6999.27 2.848e-17 3.549e-18
7000.807 2.592e-17 3.64e-18
7002.345 2.536e-17 3.727e-18
7003.882 2.571e-17 3.638e-18
7005.419 2.283e-17 3.48e-18
7006.957 2.869e-17 3.807e-18
7008.494 2.357e-17 3.804e-18
7010.032 2.511e-17 3.952e-18
7011.569 2.832e-17 3.862e-18
7013.107 2.499e-17 3.738e-18
7014.644 2.955e-17 3.608e-18
7016.182 2.069e-17 3.279e-18
7017.719 2.431e-17 3.393e-18
7019.256 2.823e-17 3.482e-18
7020.794 2.04e-17 3.265e-18
7022.331 2.582e-17 3.297e-18
7023.869 2.891e-17 3.456e-18
7025.407 2.629e-17 3.456e-18
7026.944 2.444e-17 3.376e-18
7028.482 2.335e-17 3.417e-18
7030.019 2.437e-17 3.348e-18
7031.557 2.233e-17 3.363e-18
7033.095 2.017e-17 3.184e-18
7034.633 2.599e-17 3.406e-18
7036.171 2.101e-17 3.225e-18
7037.708 2.469e-17 3.378e-18
7039.246 2.122e-17 3.394e-18
7040.783 2.207e-17 3.355e-18
7042.321 2.229e-17 3.31e-18
7043.86 2.439e-17 3.603e-18
7045.397 2.589e-17 3.593e-18
7046.935 2.284e-17 3.67e-18
7048.472 2.529e-17 3.644e-18
7050.01 3.085e-17 3.776e-18
7051.548 2.336e-17 3.455e-18
7053.086 2.622e-17 3.449e-18
7054.624 2.566e-17 3.447e-18
7056.161 2.19e-17 3.186e-18
7057.7 2.254e-17 3.282e-18
7059.237 2.639e-17 3.422e-18
7060.775 2.62e-17 3.317e-18
7062.314 2.817e-17 3.581e-18
7063.851 2.183e-17 3.355e-18
7065.39 2.742e-17 3.513e-18
7066.927 2.578e-17 3.423e-18
7068.465 2.428e-17 3.468e-18
7070.004 2.563e-17 3.366e-18
7071.541 2.68e-17 3.469e-18
7073.08 2.536e-17 3.411e-18
7074.617 2.627e-17 3.398e-18
7076.156 2.896e-17 3.45e-18
7077.693 2.42e-17 3.304e-18
7079.232 2.693e-17 3.363e-18
7080.77 2.96e-17 3.393e-18
7082.308 2.26e-17 3.274e-18
7083.846 2.803e-17 3.439e-18
7085.384 2.491e-17 3.33e-18
7086.922 2.169e-17 3.332e-18
7088.461 2.434e-17 3.381e-18
7089.999 2.678e-17 3.364e-18
7091.537 2.247e-17 3.297e-18
7093.075 2.597e-17 3.259e-18
7094.613 2.632e-17 3.292e-18
7096.151 2.63e-17 3.268e-18
7097.69 2.337e-17 3.266e-18
7099.228 2.277e-17 3.19e-18
7100.766 2.857e-17 3.316e-18
7102.305 3.083e-17 3.332e-18
7103.843 2.391e-17 3.196e-18
7105.381 2.563e-17 3.147e-18
7106.92 2.427e-17 3.155e-18
7108.458 2.503e-17 3.216e-18
7109.997 2.361e-17 3.082e-18
7111.534 2.272e-17 3.147e-18
7113.073 2.166e-17 3.079e-18
7114.612 2.248e-17 3.042e-18
7116.15 2.479e-17 3.169e-18
7117.689 2.513e-17 3.01e-18
7119.227 2.364e-17 3.106e-18
7120.766 2.257e-17 3.165e-18
7122.303 2.502e-17 3.174e-18
7123.842 2.301e-17 3.14e-18
7125.381 2.923e-17 3.364e-18
7126.919 2.093e-17 3.145e-18
7128.458 2.031e-17 3.123e-18
7129.996 1.937e-17 3.232e-18
7131.535 2.322e-17 3.119e-18
7133.074 2.642e-17 3.325e-18
7134.612 2.13e-17 3.077e-18
7136.151 1.883e-17 3.004e-18
7137.689 2.368e-17 3.124e-18
7139.228 2.443e-17 3.276e-18
7140.766 2.622e-17 3.38e-18
7142.305 2.615e-17 3.326e-18
7143.844 1.923e-17 3.265e-18
7145.383 2.459e-17 3.283e-18
7146.922 2.407e-17 3.259e-18
7148.46 2.136e-17 3.171e-18
7149.999 2.165e-17 3.174e-18
7151.538 2.094e-17 3.065e-18
7153.076 2.191e-17 3.09e-18
7154.615 2.357e-17 3.269e-18
7156.154 2.147e-17 3.087e-18
7157.693 2.045e-17 3.139e-18
7159.231 2.132e-17 3.105e-18
7160.77 2.754e-17 3.238e-18
7162.31 2.229e-17 3.186e-18
7163.848 2.266e-17 3.246e-18
7165.387 2.221e-17 3.17e-18
7166.925 2.151e-17 3.162e-18
7168.465 2.345e-17 3.31e-18
7170.004 2.438e-17 3.238e-18
7171.542 2.43e-17 3.321e-18
7173.082 2.338e-17 3.366e-18
7174.62 2.53e-17 3.532e-18
7176.16 2.153e-17 3.171e-18
7177.699 2.411e-17 3.378e-18
7179.237 2.375e-17 3.402e-18
7180.777 2.374e-17 3.356e-18
7182.315 2.731e-17 3.394e-18
7183.855 2.154e-17 3.479e-18
7185.393 2.713e-17 3.417e-18
7186.933 1.75e-17 3.237e-18
7188.472 1.786e-17 3.335e-18
7190.011 2.523e-17 3.348e-18
7191.55 1.328e-17 3.039e-18
7193.089 2.859e-17 3.389e-18
7194.628 2.699e-17 3.347e-18
7196.168 2.364e-17 3.254e-18
7197.706 2.381e-17 3.405e-18
7199.246 1.748e-17 3.278e-18
7200.784 2.154e-17 3.254e-18
7202.324 2.029e-17 3.316e-18
7203.863 2.232e-17 3.288e-18
7205.402 2.328e-17 3.293e-18
7206.942 2.423e-17 3.176e-18
7208.481 2.616e-17 3.318e-18
7210.02 1.854e-17 2.998e-18
7211.559 1.772e-17 2.927e-18
7213.099 2.303e-17 3.157e-18
7214.638 2.461e-17 3.181e-18
7216.177 2.257e-17 2.988e-18
7217.717 2.341e-17 3.273e-18
7219.255 1.877e-17 3.076e-18
7220.795 1.885e-17 3.084e-18
7222.334 2.054e-17 3.171e-18
7223.874 2.058e-17 3.289e-18
7225.414 2.004e-17 3.095e-18
7226.952 2.288e-17 3.191e-18
7228.492 2.26e-17 3.343e-18
7230.031 2.36e-17 3.436e-18
7231.571 1.945e-17 3.458e-18
7233.111 1.898e-17 3.637e-18
7234.65 1.314e-17 4.11e-18
7236.19 2.091e-17 5.425e-18
7237.728 1.004e-17 5.853e-18
7239.268 1.685e-17 6.524e-18
7240.807 2.562e-17 7e-18
7242.347 2.399e-17 6.829e-18
7243.887 2.133e-17 6.277e-18
7245.426 2.058e-17 5.789e-18
7246.966 1.587e-17 4.724e-18
7248.505 1.598e-17 4.229e-18
7250.045 1.488e-17 4.153e-18
7251.585 1.269e-17 4.06e-18
7253.124 2.004e-17 4.051e-18
7254.664 1.892e-17 3.717e-18
7256.203 1.885e-17 3.623e-18
7257.743 2.451e-17 3.512e-18
7259.284 1.827e-17 3.331e-18
7260.823 2.074e-17 3.44e-18
7262.363 2.211e-17 3.406e-18
7263.902 1.812e-17 3.316e-18
7265.442 1.826e-17 3.473e-18
7266.981 1.91e-17 3.441e-18
7268.521 2.084e-17 3.531e-18
7270.062 1.85e-17 3.84e-18
7271.601 2.816e-17 5.382e-18
7273.141 2.543e-17 6.686e-18
7274.68 2.895e-17 7.1e-18
7276.22 1.961e-17 6.744e-18
7277.761 2.207e-17 5.794e-18
7279.3 2.704e-17 5.052e-18
7280.84 2.579e-17 4.968e-18
7282.379 2.726e-17 4.973e-18
7283.92 2.137e-17 4.776e-18
7285.459 2.413e-17 4.673e-18
7286.999 2.16e-17 4.018e-18
7288.54 1.933e-17 3.597e-18
7290.079 1.872e-17 3.532e-18
7291.619 1.993e-17 3.619e-18
7293.159 1.726e-17 3.682e-18
7294.699 2.244e-17 3.868e-18
7296.239 1.733e-17 3.728e-18
7297.779 1.68e-17 3.602e-18
7299.319 2.153e-17 3.895e-18
7300.859 2.008e-17 4.073e-18
7302.399 2.27e-17 4.382e-18
7303.939 2.031e-17 4.243e-18
7305.479 2.002e-17 3.839e-18
7307.02 2.602e-17 3.877e-18
7308.559 2.464e-17 3.619e-18
7310.1 2.335e-17 3.808e-18
7311.639 2.177e-17 4.768e-18
7313.18 2.729e-17 5.865e-18
7314.72 1.77e-17 5.997e-18
7316.26 2.362e-17 6.035e-18
7317.8 2.314e-17 5.23e-18
7319.34 2.145e-17 4.034e-18
7320.88 2.21e-17 3.531e-18
7322.42 2.311e-17 3.344e-18
7323.961 2.302e-17 3.764e-18
7325.501 2.194e-17 4.295e-18
7327.041 2.41e-17 4.613e-18
7328.582 1.959e-17 4.523e-18
7330.121 1.831e-17 4.195e-18
7331.662 2.073e-17 3.763e-18
7333.203 2.048e-17 3.407e-18
7334.742 2.083e-17 3.514e-18
7336.283 2.025e-17 4.762e-18
7337.823 2.597e-17 6.081e-18
7339.363 2.228e-17 6.348e-18
7340.904 2.199e-17 6.096e-18
7342.444 2.893e-17 5.435e-18
7343.985 1.964e-17 4.255e-18
7345.525 2.139e-17 3.594e-18
7347.065 2.185e-17 3.363e-18
7348.605 1.699e-17 3.128e-18
7350.146 2.246e-17 3.24e-18
7351.687 2.207e-17 3.196e-18
7353.227 2.386e-17 3.529e-18
7354.768 2.236e-17 4.021e-18
7356.307 1.463e-17 4.243e-18
7357.848 2.188e-17 4.344e-18
7359.389 2.547e-17 4.318e-18
7360.929 1.727e-17 3.646e-18
7362.47 1.68e-17 3.413e-18
7364.01 2.396e-17 3.996e-18
7365.551 2.633e-17 4.885e-18
7367.091 3.239e-17 5.57e-18
7368.632 1.896e-17 5.523e-18
7370.173 2.367e-17 5.141e-18
7371.713 1.779e-17 4.135e-18
7373.254 1.855e-17 3.607e-18
7374.794 2.328e-17 3.238e-18
7376.335 1.965e-17 3.06e-18
7377.876 2.252e-17 3.005e-18
7379.416 2.382e-17 3.167e-18
7380.957 1.765e-17 2.972e-18
7382.497 2.119e-17 3.038e-18
7384.038 1.794e-17 2.899e-18
7385.578 2.083e-17 3.056e-18
7387.119 2.222e-17 3.377e-18
7388.661 2.035e-17 3.587e-18
7390.201 1.74e-17 3.895e-18
7391.742 1.973e-17 3.904e-18
7393.282 2.066e-17 3.746e-18
7394.823 1.964e-17 3.354e-18
7396.364 2.203e-17 3.511e-18
7397.905 2.8e-17 4.263e-18
7399.446 1.697e-17 4.509e-18
7400.986 3.139e-17 4.875e-18
7402.527 2.139e-17 4.409e-18
7404.067 2.143e-17 3.935e-18
7405.609 1.905e-17 3.297e-18
7407.15 2.422e-17 3.124e-18
7408.69 1.836e-17 3.061e-18
7410.232 1.979e-17 3.061e-18
7411.772 1.96e-17 2.923e-18
7413.313 1.936e-17 2.983e-18
7414.854 1.662e-17 2.886e-18
7416.395 1.959e-17 3.021e-18
7417.936 1.879e-17 2.955e-18
7419.477 2.168e-17 3.058e-18
7421.018 2.191e-17 3.008e-18
7422.558 1.997e-17 2.853e-18
7424.1 1.992e-17 2.957e-18
7425.641 1.559e-17 3.06e-18
7427.182 1.897e-17 3.365e-18
7428.723 2.014e-17 3.417e-18
7430.263 2.276e-17 3.43e-18
7431.805 2.1e-17 3.238e-18
7433.346 2.328e-17 3.455e-18
7434.887 1.778e-17 3.656e-18
7436.428 2.306e-17 3.979e-18
7437.969 1.758e-17 3.835e-18
7439.51 2.065e-17 3.578e-18
7441.052 1.815e-17 3.337e-18
7442.592 2.127e-17 3.102e-18
7444.134 1.696e-17 2.764e-18
7445.674 2.286e-17 3.028e-18
7447.216 1.482e-17 2.801e-18
7448.757 2.073e-17 2.98e-18
7450.298 1.932e-17 2.947e-18
7451.84 1.508e-17 2.839e-18
7453.38 1.974e-17 2.937e-18
7454.922 1.815e-17 2.954e-18
7456.463 1.917e-17 2.986e-18
7458.004 1.783e-17 3.065e-18
7459.546 1.562e-17 3.019e-18
7461.087 1.546e-17 3.11e-18
7462.628 1.857e-17 3.399e-18
7464.169 2.124e-17 3.476e-18
7465.711 2.234e-17 3.586e-18
7467.251 1.535e-17 3.631e-18
7468.793 1.549e-17 3.746e-18
7470.335 2.128e-17 3.969e-18
7471.876 1.824e-17 3.974e-18
7473.417 1.84e-17 3.972e-18
7474.958 2.325e-17 3.99e-18
7476.5 2.152e-17 3.924e-18
7478.042 1.913e-17 3.945e-18
7479.583 1.776e-17 4.196e-18
7481.124 2.546e-17 4.33e-18
7482.665 1.978e-17 4.072e-18
7484.207 2.264e-17 3.914e-18
7485.748 1.505e-17 3.451e-18
7487.29 1.887e-17 3.321e-18
7488.832 1.595e-17 3.076e-18
7490.373 1.371e-17 3.21e-18
7491.915 2.054e-17 3.454e-18
7493.455 1.502e-17 3.276e-18
7494.997 1.538e-17 3.24e-18
7496.539 2.026e-17 3.281e-18
7498.08 1.866e-17 3.117e-18
7499.622 2.02e-17 3.191e-18
7501.163 2.084e-17 3.077e-18
7502.705 2.081e-17 3.06e-18
7504.246 1.686e-17 3.013e-18
7505.788 2.14e-17 3.141e-18
7507.33 2.195e-17 3.153e-18
7508.871 1.427e-17 2.918e-18
7510.413 1.918e-17 3.078e-18
7511.954 1.957e-17 3.188e-18
7513.496 1.766e-17 3.276e-18
7515.038 1.961e-17 3.274e-18
7516.579 1.576e-17 3.321e-18
7518.121 1.829e-17 3.74e-18
7519.663 1.594e-17 4.51e-18
7521.205 2.421e-17 5.352e-18
7522.746 8.608e-18 5.313e-18
7524.288 2.182e-17 5.461e-18
7525.83 1.825e-17 4.862e-18
7527.371 2.246e-17 4.472e-18
7528.913 1.565e-17 4.272e-18
7530.455 2.174e-17 4.055e-18
7531.997 1.961e-17 3.781e-18
7533.539 1.877e-17 3.49e-18
7535.08 2.247e-17 3.48e-18
7536.622 1.413e-17 3.344e-18
7538.164 1.863e-17 3.538e-18
7539.706 2.011e-17 3.521e-18
7541.247 1.962e-17 3.398e-18
7542.789 1.575e-17 3.257e-18
7544.332 1.786e-17 3.212e-18
7545.873 1.832e-17 3.268e-18
7547.415 1.751e-17 3.293e-18
7548.956 2.125e-17 3.282e-18
7550.499 2.106e-17 3.309e-18
7552.041 2.322e-17 3.575e-18
7553.582 2.118e-17 3.678e-18
7555.125 1.518e-17 3.793e-18
7556.666 2.174e-17 3.948e-18
7558.209 2.26e-17 3.882e-18
7559.75 2.087e-17 3.547e-18
7561.292 2.077e-17 3.422e-18
7562.835 2.203e-17 3.452e-18
7564.376 1.933e-17 3.431e-18
7565.919 2.07e-17 3.932e-18
7567.46 1.965e-17 4.572e-18
7569.002 2.497e-17 5.153e-18
7570.545 2.167e-17 5.283e-18
7572.086 2.566e-17 5.341e-18
7573.629 1.693e-17 4.488e-18
7575.17 2.092e-17 4.082e-18
7576.713 1.938e-17 3.555e-18
7578.254 2.188e-17 3.394e-18
7579.797 1.807e-17 3.395e-18
7581.339 2.297e-17 3.693e-18
7582.881 2.024e-17 4.041e-18
7584.423 2.142e-17 4.159e-18
7585.965 2.192e-17 4.164e-18
7587.508 2.168e-17 4.04e-18
7589.05 2.808e-17 3.942e-18
7590.592 2.04e-17 3.858e-18
7592.134 1.552e-17 4.309e-18
7593.676 2.212e-17 5.394e-18
7595.219 1.834e-17 7.024e-18
7596.76 8.17e-18 8.901e-18
7598.303 1.851e-17 1.033e-17
7599.845 1.734e-17 1.163e-17
7601.387 1.36e-17 1.165e-17
7602.93 2.656e-17 1.078e-17
7604.471 -7.749e-19 1.035e-17
7606.014 1.928e-17 1.02e-17
7607.557 2.584e-17 9.586e-18
7609.099 1.908e-17 7.957e-18
7610.641 1.701e-17 7.16e-18
7612.183 3.372e-17 6.629e-18
7613.726 2.531e-17 5.912e-18
7615.269 2.567e-17 5.484e-18
7616.81 2.105e-17 5.157e-18
7618.353 2.405e-17 4.949e-18
7619.895 1.722e-17 5.1e-18
7621.438 2.13e-17 5.366e-18
7622.979 2.411e-17 5.613e-18
7624.522 2.75e-17 6.566e-18
7626.065 1.881e-17 6.869e-18
7627.607 1.973e-17 7.451e-18
7629.15 2.726e-17 7.366e-18
7630.692 2.481e-17 6.587e-18
7632.235 1.708e-17 5.767e-18
7633.777 2.918e-17 5.562e-18
7635.319 1.633e-17 5.241e-18
7636.862 2.425e-17 5.28e-18
7638.404 2.583e-17 4.997e-18
7639.947 3.063e-17 5.09e-18
7641.489 2.305e-17 4.672e-18
7643.032 2.018e-17 4.48e-18
7644.575 1.571e-17 4.32e-18
7646.117 2.088e-17 4.367e-18
7647.66 2.214e-17 4.494e-18
7649.202 2.849e-17 4.559e-18
7650.745 1.711e-17 4.537e-18
7652.288 2.248e-17 4.567e-18
7653.83 1.978e-17 4.242e-18
7655.373 2.573e-17 4.212e-18
7656.915 1.763e-17 3.903e-18
7658.458 2.083e-17 4.377e-18
7660.0 2.123e-17 4.561e-18
7661.543 2.865e-17 4.69e-18
7663.086 2.052e-17 4.485e-18
7664.628 2.875e-17 4.115e-18
7666.171 2.53e-17 3.796e-18
7667.713 2.644e-17 3.774e-18
7669.256 2.682e-17 3.625e-18
7670.799 2.117e-17 3.438e-18
7672.342 2.524e-17 3.497e-18
7673.885 2.755e-17 3.641e-18
7675.427 3.086e-17 3.588e-18
7676.97 2.788e-17 3.45e-18
7678.512 2.225e-17 3.413e-18
7680.055 2.255e-17 3.461e-18
7681.599 2.277e-17 3.365e-18
7683.141 2.81e-17 3.617e-18
7684.684 2.377e-17 3.552e-18
7686.226 2.597e-17 3.591e-18
7687.769 2.469e-17 3.605e-18
7689.313 2.742e-17 3.632e-18
7690.855 2.137e-17 3.521e-18
7692.398 1.794e-17 3.473e-18
7693.94 2.513e-17 3.728e-18
7695.484 2.646e-17 3.797e-18
7697.026 2.347e-17 3.815e-18
7698.569 2.335e-17 3.802e-18
7700.112 2.311e-17 3.712e-18
7701.655 2.563e-17 3.614e-18
7703.198 2.227e-17 3.408e-18
7704.74 2.216e-17 3.348e-18
7706.284 2.657e-17 3.795e-18
7707.827 2.941e-17 4.914e-18
7709.37 2.493e-17 5.827e-18
7710.913 2.904e-17 6.703e-18
7712.455 3.062e-17 7.535e-18
7713.999 2.08e-17 7.457e-18
7715.541 2.342e-17 7.207e-18
7717.084 2.179e-17 6.61e-18
7718.628 1.421e-17 5.53e-18
7720.17 2.814e-17 4.923e-18
7721.714 2.02e-17 4.532e-18
7723.256 1.852e-17 4.361e-18
7724.8 2.585e-17 4.42e-18
7726.343 2.316e-17 4.142e-18
7727.886 2.033e-17 3.826e-18
7729.429 1.576e-17 3.568e-18
7730.972 2.43e-17 3.578e-18
7732.515 2.717e-17 3.464e-18
7734.058 2.508e-17 3.594e-18
7735.601 2.197e-17 3.457e-18
7737.145 2.546e-17 3.459e-18
7738.687 2.013e-17 3.337e-18
7740.231 2.009e-17 3.393e-18
7741.773 2.484e-17 3.473e-18
7743.317 2.143e-17 3.486e-18
7744.86 2.671e-17 4.446e-18
7746.403 2.533e-17 6.036e-18
7747.947 1.894e-17 6.739e-18
7749.489 2.631e-17 7.052e-18
7751.033 3.212e-17 6.749e-18
7752.575 1.438e-17 5.525e-18
7754.119 1.659e-17 4.512e-18
7755.663 2.026e-17 4.537e-18
7757.205 2.767e-17 4.778e-18
7758.749 1.584e-17 4.742e-18
7760.292 2.198e-17 4.608e-18
7761.835 1.793e-17 4.004e-18
7763.379 2.188e-17 3.586e-18
7764.922 2.25e-17 3.321e-18
7766.465 1.714e-17 3.103e-18
7768.008 2.285e-17 3.386e-18
7769.552 1.776e-17 3.617e-18
7771.095 2.384e-17 3.871e-18
7772.638 2.659e-17 3.955e-18
7774.182 2.402e-17 3.867e-18
7775.725 2.279e-17 4.054e-18
7777.269 2.379e-17 4.17e-18
7778.811 1.886e-17 4.224e-18
7780.355 2.427e-17 4.309e-18
7781.899 1.911e-17 3.925e-18
7783.442 2.405e-17 3.596e-18
7784.986 1.817e-17 3.386e-18
7786.528 1.919e-17 3.449e-18
7788.072 1.727e-17 3.808e-18
7789.615 2.285e-17 5.102e-18
7791.159 2.531e-17 6.011e-18
7792.703 1.486e-17 6.262e-18
7794.246 2.453e-17 6.169e-18
7795.79 1.944e-17 5.214e-18
7797.332 1.903e-17 4.314e-18
7798.876 1.648e-17 3.486e-18
7800.42 1.897e-17 3.228e-18
7801.963 2.083e-17 3.283e-18
7803.507 1.695e-17 3.64e-18
7805.05 1.875e-17 4.263e-18
7806.594 2.112e-17 4.768e-18
7808.137 3.012e-17 4.862e-18
7809.681 1.945e-17 4.413e-18
7811.225 1.666e-17 3.829e-18
7812.768 2.528e-17 3.643e-18
7814.312 2.389e-17 3.561e-18
7815.855 1.811e-17 4.336e-18
7817.399 2.483e-17 5.793e-18
7818.943 1.234e-17 6.344e-18
7820.486 9.851e-18 6.65e-18
7822.03 2.334e-17 6.563e-18
7823.573 2.921e-17 5.451e-18
7825.117 1.963e-17 4.273e-18
7826.66 1.601e-17 3.543e-18
7828.204 1.957e-17 3.479e-18
7829.748 2.161e-17 3.445e-18
7831.291 2.115e-17 3.447e-18
7832.835 2.129e-17 3.312e-18
7834.378 2.289e-17 3.415e-18
7835.922 1.769e-17 3.647e-18
7837.467 2.225e-17 4.318e-18
7839.01 2.004e-17 4.634e-18
7840.554 1.936e-17 4.631e-18
7842.097 2.296e-17 4.579e-18
7843.641 2.576e-17 4.112e-18
7845.184 2.171e-17 3.918e-18
7846.728 2.083e-17 4.2e-18
7848.273 2.505e-17 5.588e-18
7849.816 1.741e-17 6.562e-18
7851.36 1.951e-17 7.231e-18
7852.903 2.251e-17 7.259e-18
7854.447 1.668e-17 6.803e-18
7855.992 2.336e-17 6.302e-18
7857.535 2.328e-17 5.839e-18
7859.079 2.835e-17 5.693e-18
7860.622 2.569e-17 5.589e-18
7862.167 1.741e-17 4.892e-18
7863.71 2.368e-17 4.57e-18
7865.254 2.699e-17 4.999e-18
7866.798 2.48e-17 5.477e-18
7868.342 1.631e-17 5.846e-18
7869.886 2.832e-17 5.92e-18
7871.429 2.505e-17 5.399e-18
7872.974 2.375e-17 4.872e-18
7874.518 2.181e-17 4.489e-18
7876.061 3.019e-17 4.79e-18
7877.606 2.316e-17 4.945e-18
7879.149 2.549e-17 5.096e-18
7880.693 3.036e-17 5.165e-18
7882.237 2.085e-17 4.592e-18
7883.781 2.68e-17 4.556e-18
7885.325 2.17e-17 4.823e-18
7886.869 1.402e-17 5.384e-18
7888.413 1.703e-17 5.672e-18
7889.957 2.229e-17 5.755e-18
7891.501 2.107e-17 5.05e-18
7893.045 2.701e-17 4.488e-18
7894.589 2.073e-17 3.792e-18
7896.133 2.428e-17 3.614e-18
7897.677 2.479e-17 3.619e-18
7899.221 1.805e-17 3.316e-18
7900.765 1.861e-17 3.506e-18
7902.309 2.121e-17 3.526e-18
7903.853 2.764e-17 3.713e-18
7905.397 2.346e-17 3.733e-18
7906.941 2.25e-17 4.108e-18
7908.485 1.71e-17 5.461e-18
7910.029 2.339e-17 7.196e-18
7911.574 2.246e-17 8.382e-18
7913.118 2.445e-17 8.267e-18
7914.662 2.307e-17 7.728e-18
7916.206 2.526e-17 6.799e-18
7917.75 2.543e-17 6.497e-18
7919.294 1.413e-17 6.087e-18
7920.838 1.363e-17 5.74e-18
7922.383 2.515e-17 5.419e-18
7923.926 1.816e-17 4.481e-18
7925.471 2.067e-17 4.24e-18
7927.015 1.516e-17 4.452e-18
7928.559 2.892e-17 5.188e-18
7930.104 2.498e-17 5.304e-18
7931.647 2.018e-17 5.22e-18
7933.192 1.614e-17 4.422e-18
7934.736 2.133e-17 4.045e-18
7936.28 1.75e-17 3.425e-18
7937.824 2.474e-17 3.556e-18
7939.369 2.207e-17 3.471e-18
7940.913 1.719e-17 3.371e-18
7942.457 2.755e-17 3.828e-18
7944.002 2.248e-17 4.078e-18
7945.545 2.082e-17 4.562e-18
7947.09 2.249e-17 5.009e-18
7948.635 2.239e-17 4.91e-18
7950.178 1.722e-17 4.624e-18
7951.723 2.86e-17 4.248e-18
7953.267 1.85e-17 3.516e-18
7954.812 1.956e-17 3.368e-18
7956.355 2.193e-17 3.515e-18
7957.9 2.376e-17 3.617e-18
7959.445 1.99e-17 4.822e-18
7960.989 1.6e-17 6.397e-18
7962.533 2.186e-17 7.146e-18
7964.077 2.524e-17 7.416e-18
7965.622 2.469e-17 6.983e-18
7967.166 1.556e-17 5.554e-18
7968.711 2.86e-17 4.686e-18
7970.255 2.22e-17 3.807e-18
7971.799 1.685e-17 3.583e-18
7973.344 1.865e-17 4.052e-18
7974.888 1.824e-17 4.614e-18
7976.433 2.269e-17 5.353e-18
7977.978 2.163e-17 5.695e-18
7979.522 1.695e-17 5.495e-18
7981.066 2.301e-17 4.934e-18
7982.61 1.871e-17 4.218e-18
7984.155 2.401e-17 3.757e-18
7985.699 2.193e-17 3.63e-18
7987.244 2.144e-17 4.183e-18
7988.789 2.317e-17 5.636e-18
7990.333 1.726e-17 7.028e-18
7991.878 1.39e-17 7.635e-18
7993.422 2.233e-17 7.567e-18
7994.967 2.153e-17 6.592e-18
7996.511 1.667e-17 4.881e-18
7998.055 2.269e-17 3.992e-18
7999.6 1.675e-17 3.53e-18
8001.144 2.082e-17 3.462e-18
8002.689 2.604e-17 3.597e-18
8004.233 2.465e-17 3.416e-18
8005.778 2.144e-17 3.384e-18
8007.323 2.541e-17 3.557e-18
8008.867 2.036e-17 3.838e-18
8010.412 2.301e-17 4.574e-18
8011.956 3.059e-17 4.984e-18
8013.501 2.248e-17 4.869e-18
8015.046 2.739e-17 4.812e-18
8016.59 2.646e-17 4.223e-18
8018.135 2.122e-17 3.946e-18
8019.68 1.89e-17 3.962e-18
8021.225 2.18e-17 5.068e-18
8022.769 2.493e-17 6.225e-18
8024.314 2.735e-17 6.75e-18
8025.859 1.882e-17 6.59e-18
8027.403 1.902e-17 5.914e-18
8028.948 2.569e-17 5.002e-18
8030.492 2.232e-17 4.052e-18
8032.037 1.759e-17 3.532e-18
8033.582 1.615e-17 3.355e-18
8035.126 1.978e-17 3.27e-18
8036.672 1.956e-17 3.179e-18
8038.216 2.02e-17 3.31e-18
8039.761 1.821e-17 3.15e-18
8041.305 2.265e-17 3.304e-18
8042.85 1.991e-17 3.306e-18
8044.395 2.295e-17 3.281e-18
8045.94 2.331e-17 3.546e-18
8047.485 1.931e-17 3.772e-18
8049.029 2.275e-17 4.243e-18
8050.574 1.991e-17 4.465e-18
8052.119 2.028e-17 4.424e-18
8053.664 1.758e-17 3.907e-18
8055.209 1.906e-17 3.507e-18
8056.753 2.523e-17 3.845e-18
8058.298 2.417e-17 4.688e-18
8059.843 2.406e-17 5.087e-18
8061.388 1.841e-17 5.131e-18
8062.933 1.87e-17 4.954e-18
8064.477 2.395e-17 4.298e-18
8066.023 1.913e-17 3.647e-18
8067.567 1.763e-17 3.213e-18
8069.112 1.711e-17 3.117e-18
8070.657 1.826e-17 3.155e-18
8072.202 2.386e-17 3.304e-18
8073.747 1.872e-17 3.23e-18
8075.291 1.653e-17 3.172e-18
8076.837 1.775e-17 3.161e-18
8078.381 1.904e-17 3.306e-18
8079.926 1.76e-17 3.072e-18
8081.472 2.079e-17 3.354e-18
8083.016 2.518e-17 3.338e-18
8084.561 1.96e-17 3.307e-18
8086.106 2.145e-17 3.295e-18
8087.651 2.196e-17 3.418e-18
8089.196 1.883e-17 3.243e-18
8090.741 2.027e-17 3.635e-18
8092.286 1.879e-17 3.661e-18
8093.831 1.942e-17 3.574e-18
8095.376 2.417e-17 3.572e-18
8096.92 1.686e-17 3.394e-18
8098.466 2.012e-17 3.755e-18
8100.011 2.465e-17 4.152e-18
8101.556 1.749e-17 4.089e-18
8103.101 2.258e-17 4.028e-18
8104.646 1.929e-17 3.735e-18
8106.191 1.982e-17 3.466e-18
8107.736 1.761e-17 3.297e-18
8109.281 1.941e-17 3.167e-18
8110.826 2.21e-17 3.24e-18
8112.371 1.79e-17 3.107e-18
8113.916 1.844e-17 3.065e-18
8115.461 2.025e-17 3.152e-18
8117.006 1.854e-17 3.026e-18
8118.552 2.194e-17 3.171e-18
8120.096 1.593e-17 3.05e-18
8121.642 2.034e-17 3.125e-18
8123.186 1.626e-17 3.098e-18
8124.732 1.857e-17 3.209e-18
8126.277 1.516e-17 3.118e-18
8127.822 2.499e-17 3.345e-18
8129.367 2.313e-17 3.289e-18
8130.912 1.259e-17 3.137e-18
8132.458 1.698e-17 3.245e-18
8134.002 1.742e-17 3.316e-18
8135.548 1.802e-17 3.507e-18
8137.093 1.685e-17 3.49e-18
8138.638 1.194e-17 3.529e-18
8140.183 2.124e-17 3.491e-18
8141.728 1.611e-17 3.304e-18
8143.274 1.809e-17 3.499e-18
8144.819 2.217e-17 3.746e-18
8146.364 1.496e-17 3.442e-18
8147.91 1.741e-17 3.55e-18
8149.454 1.638e-17 3.463e-18
8151.0 1.537e-17 3.188e-18
8152.544 1.971e-17 3.342e-18
8154.09 1.686e-17 3.214e-18
8155.636 2.455e-17 3.383e-18
8157.18 1.496e-17 3.162e-18
8158.726 1.468e-17 3.145e-18
8160.271 2.14e-17 3.293e-18
8161.816 1.818e-17 3.37e-18
8163.361 1.9e-17 3.367e-18
8164.907 2.076e-17 3.438e-18
8166.452 1.289e-17 3.108e-18
8167.997 1.715e-17 3.199e-18
8169.543 1.866e-17 3.276e-18
8171.088 1.313e-17 3.082e-18
8172.633 2.16e-17 3.251e-18
8174.179 2.021e-17 3.308e-18
8175.724 1.34e-17 3.156e-18
8177.27 1.741e-17 3.338e-18
8178.814 2.167e-17 3.55e-18
8180.36 1.651e-17 3.321e-18
8181.905 1.703e-17 3.45e-18
8183.451 1.835e-17 3.557e-18
8184.996 2.16e-17 3.603e-18
8186.541 1.845e-17 3.525e-18
8188.087 1.749e-17 3.55e-18
8189.632 1.768e-17 3.54e-18
8191.177 1.789e-17 3.528e-18
8192.723 1.526e-17 3.634e-18
8194.268 1.929e-17 3.768e-18
8195.814 1.923e-17 3.618e-18
8197.359 1.833e-17 3.485e-18
8198.905 1.527e-17 3.309e-18
8200.449 1.789e-17 3.236e-18
8201.995 1.795e-17 3.193e-18
8203.541 1.61e-17 3.325e-18
8205.086 1.717e-17 3.071e-18
8206.632 2.014e-17 3.195e-18
8208.177 1.636e-17 3.163e-18
8209.723 1.554e-17 3.017e-18
8211.268 1.546e-17 3.082e-18
8212.813 1.771e-17 3.233e-18
8214.359 1.565e-17 3.088e-18
8215.904 1.6e-17 3.09e-18
8217.45 1.923e-17 3.183e-18
8218.995 1.12e-17 2.95e-18
8220.541 1.755e-17 3.221e-18
8222.087 1.639e-17 3.223e-18
8223.632 1.914e-17 3.459e-18
8225.178 9.379e-18 3.283e-18
8226.722 1.338e-17 3.4e-18
8228.268 1.74e-17 3.721e-18
8229.814 1.464e-17 3.462e-18
8231.359 2.143e-17 3.533e-18
8232.905 1.855e-17 3.33e-18
8234.45 1.65e-17 3.124e-18
8235.996 2.084e-17 3.239e-18
8237.541 1.659e-17 3.102e-18
8239.087 1.814e-17 3.239e-18
8240.633 2.117e-17 3.351e-18
8242.178 1.456e-17 3.263e-18
8243.724 1.884e-17 3.265e-18
8245.269 1.423e-17 3.206e-18
8246.815 1.554e-17 3.126e-18
8248.361 1.668e-17 3.159e-18
8249.906 1.528e-17 3.088e-18
8251.452 1.822e-17 3.138e-18
8252.997 2.072e-17 3.256e-18
8254.543 1.728e-17 3.242e-18
8256.088 1.991e-17 3.356e-18
8257.634 1.827e-17 3.204e-18
8259.18 1.527e-17 3.067e-18
8260.725 1.773e-17 3.238e-18
8262.272 1.338e-17 3.043e-18
8263.817 1.621e-17 3.099e-18
8265.363 1.754e-17 3.143e-18
8266.909 1.996e-17 3.189e-18
8268.454 1.478e-17 3.147e-18
8270.0 1.923e-17 3.224e-18
8271.545 1.606e-17 3.3e-18
8273.091 1.785e-17 3.807e-18
8274.636 1.983e-17 4.574e-18
8276.182 1.248e-17 5.26e-18
8277.728 2.435e-17 6.409e-18
8279.274 1.661e-17 6.954e-18
8280.82 1.427e-17 6.634e-18
8282.365 1.342e-17 6.547e-18
8283.911 2.037e-17 6.759e-18
8285.456 1.863e-17 7.289e-18
8287.002 1.587e-17 7.475e-18
8288.548 1.736e-17 7.1e-18
8290.094 1.602e-17 6.34e-18
8291.64 2.047e-17 5.446e-18
8293.185 8.896e-18 5.399e-18
8294.731 1.001e-17 6.771e-18
8296.277 7.305e-18 7.619e-18
8297.823 1.762e-17 7.903e-18
8299.369 1.287e-17 7.059e-18
8300.914 2.024e-17 6.074e-18
8302.46 1.654e-17 4.521e-18
8304.005 1.755e-17 3.822e-18
8305.552 2.218e-17 3.979e-18
8307.098 1.531e-17 4.557e-18
8308.643 1.89e-17 5.048e-18
8310.189 9.889e-18 4.808e-18
8311.734 1.536e-17 4.638e-18
8313.281 1.573e-17 3.833e-18
8314.827 1.641e-17 3.65e-18
8316.372 1.778e-17 3.553e-18
8317.918 1.572e-17 3.442e-18
8319.464 1.908e-17 3.584e-18
8321.01 1.905e-17 3.366e-18
8322.555 1.535e-17 3.123e-18
8324.102 1.821e-17 3.268e-18
8325.648 1.723e-17 3.099e-18
8327.193 1.818e-17 3.181e-18
8328.739 1.654e-17 3.171e-18
8330.285 1.295e-17 3.006e-18
8331.831 1.345e-17 3.179e-18
8333.377 1.562e-17 3.244e-18
8334.923 1.665e-17 3.44e-18
8336.469 1.573e-17 3.444e-18
8338.014 2.091e-17 4.526e-18
8339.561 2.382e-17 6.896e-18
8341.106 1.135e-17 9.412e-18
8342.652 3.01e-17 1.051e-17
8344.199 1.378e-17 1.041e-17
8345.744 2.117e-17 9.461e-18
8347.29 1.192e-17 7.19e-18
8348.836 2.149e-17 6.482e-18
8350.382 1.657e-17 6.838e-18
8351.928 1.522e-17 6.811e-18
8353.474 2.527e-17 6.416e-18
8355.02 1.737e-17 5.171e-18
8356.565 8.511e-18 3.774e-18
8358.112 1.84e-17 3.841e-18
8359.657 1.9e-17 3.949e-18
8361.204 1.145e-17 4.502e-18
8362.75 1.808e-17 4.861e-18
8364.295 1.781e-17 4.775e-18
8365.842 1.353e-17 4.268e-18
8367.387 1.508e-17 3.731e-18
8368.934 1.952e-17 3.456e-18
8370.48 1.698e-17 3.22e-18
8372.026 1.867e-17 3.243e-18
8373.572 1.869e-17 3.272e-18
8375.117 1.915e-17 3.477e-18
8376.664 1.793e-17 3.877e-18
8378.209 2.026e-17 4.999e-18
8379.756 2.365e-17 5.768e-18
8381.302 1.646e-17 5.799e-18
8382.848 1.733e-17 5.616e-18
8384.394 1.484e-17 4.657e-18
8385.94 1.814e-17 3.757e-18
8387.486 1.644e-17 3.327e-18
8389.032 1.998e-17 3.356e-18
8390.578 1.861e-17 3.369e-18
8392.125 1.558e-17 3.467e-18
8393.67 1.91e-17 4.79e-18
8395.217 2.593e-17 7.462e-18
8396.762 1.755e-17 8.81e-18
8398.309 1.815e-17 8.948e-18
8399.855 2.367e-17 8.342e-18
8401.401 2.045e-17 6.469e-18
8402.947 1.186e-17 4.194e-18
8404.493 1.691e-17 3.387e-18
8406.039 1.531e-17 3.115e-18
8407.585 1.383e-17 3.092e-18
8409.131 2.099e-17 3.503e-18
8410.678 1.923e-17 4.71e-18
8412.223 2.466e-17 5.779e-18
8413.77 2.994e-17 6.248e-18
8415.315 1.789e-17 5.959e-18
8416.862 2.229e-17 5.264e-18
8418.409 2.047e-17 4.063e-18
8419.954 1.643e-17 3.455e-18
8421.501 2.271e-17 3.532e-18
8423.046 2.083e-17 3.606e-18
8424.593 1.508e-17 4.897e-18
8426.139 2.031e-17 7.722e-18
8427.685 2.584e-18 9.133e-18
8429.232 9.198e-18 9.375e-18
8430.777 1.233e-17 8.755e-18
8432.324 2.735e-17 7.065e-18
8433.87 1.652e-17 4.518e-18
8435.416 1.606e-17 3.496e-18
8436.963 1.558e-17 3.112e-18
8438.508 1.268e-17 2.979e-18
8440.055 1.503e-17 2.879e-18
8441.601 1.765e-17 3.006e-18
8443.147 1.517e-17 2.955e-18
8444.693 1.682e-17 3.075e-18
8446.24 1.594e-17 3.221e-18
8447.786 1.869e-17 4.43e-18
8449.332 1.777e-17 5.355e-18
8450.879 2.064e-17 5.748e-18
8452.424 1.582e-17 5.51e-18
8453.971 1.987e-17 4.857e-18
8455.518 1.887e-17 3.772e-18
8457.063 1.475e-17 3.352e-18
8458.61 1.543e-17 3.519e-18
8460.156 1.511e-17 4.738e-18
8461.702 2.024e-17 7.028e-18
8463.248 1.374e-17 7.777e-18
8464.795 1.246e-17 7.903e-18
8466.341 2.322e-17 7.387e-18
8467.887 1.396e-17 5.3e-18
8469.434 1.945e-17 3.82e-18
8470.979 1.718e-17 3.264e-18
8472.526 1.583e-17 3.185e-18
8474.073 1.359e-17 3.059e-18
8475.619 1.945e-17 3.221e-18
8477.165 1.938e-17 3.116e-18
8478.711 1.183e-17 2.779e-18
8480.258 1.829e-17 2.848e-18
8481.804 1.408e-17 2.868e-18
8483.35 1.747e-17 2.933e-18
8484.897 1.352e-17 2.833e-18
8486.443 1.7e-17 3.039e-18
8487.99 1.93e-17 3.46e-18
8489.535 1.7e-17 4.207e-18
8491.082 1.849e-17 4.757e-18
8492.628 1.456e-17 4.796e-18
8494.175 1.551e-17 4.604e-18
8495.721 1.759e-17 3.899e-18
8497.267 1.739e-17 3.301e-18
8498.814 1.5e-17 3.466e-18
8500.36 1.903e-17 4.773e-18
8501.906 8.194e-18 5.845e-18
8503.453 1.182e-17 6.229e-18
8504.999 1.945e-17 5.945e-18
8506.546 1.672e-17 5.058e-18
8508.092 1.456e-17 3.722e-18
8509.638 1.673e-17 3.115e-18
8511.184 1.741e-17 2.885e-18
8512.731 1.713e-17 2.909e-18
8514.278 1.735e-17 2.906e-18
8515.824 1.374e-17 2.778e-18
8517.371 1.646e-17 2.863e-18
8518.916 1.542e-17 2.976e-18
8520.463 1.63e-17 2.981e-18
8522.01 2.067e-17 3.002e-18
8523.556 1.29e-17 2.724e-18
8525.103 1.865e-17 2.865e-18
8526.649 1.715e-17 2.926e-18
8528.195 1.225e-17 2.714e-18
8529.741 1.496e-17 2.856e-18
8531.288 1.588e-17 2.879e-18
8532.835 1.14e-17 2.767e-18
8534.381 1.652e-17 3.367e-18
8535.928 1.45e-17 3.671e-18
8537.474 1.82e-17 3.801e-18
8539.021 1.989e-17 3.896e-18
8540.567 1.215e-17 3.241e-18
8542.113 1.847e-17 3.302e-18
8543.66 1.668e-17 3.43e-18
8545.206 1.867e-17 4.245e-18
8546.753 1.624e-17 4.556e-18
8548.299 1.809e-17 4.668e-18
8549.846 2.202e-17 4.478e-18
8551.393 1.227e-17 3.466e-18
8552.939 1.394e-17 3.009e-18
8554.485 1.356e-17 2.758e-18
8556.031 1.398e-17 2.79e-18
8557.578 1.403e-17 2.784e-18
8559.124 1.594e-17 2.927e-18
8560.671 1.71e-17 2.868e-18
8562.218 1.451e-17 2.74e-18
8563.764 1.467e-17 2.815e-18
8565.311 1.433e-17 2.768e-18
8566.857 1.523e-17 2.851e-18
8568.404 1.173e-17 2.759e-18
8569.951 1.876e-17 2.951e-18
8571.497 2.058e-17 3.009e-18
8573.044 1.827e-17 3.053e-18
8574.59 1.946e-17 3.118e-18
8576.137 1.661e-17 3.056e-18
8577.683 1.599e-17 2.87e-18
8579.23 1.807e-17 3.082e-18
8580.776 1.878e-17 2.936e-18
8582.322 1.36e-17 2.882e-18
8583.869 2.325e-17 3.367e-18
8585.415 1.608e-17 3.459e-18
8586.962 1.921e-17 3.628e-18
8588.509 1.73e-17 3.534e-18
8590.055 1.869e-17 3.353e-18
8591.602 1.818e-17 3.245e-18
8593.148 1.532e-17 3.481e-18
8594.695 1.412e-17 3.686e-18
8596.241 2.316e-17 3.916e-18
8597.788 1.772e-17 3.741e-18
8599.335 1.464e-17 3.368e-18
8600.881 2e-17 3.205e-18
8602.428 1.295e-17 2.847e-18
8603.974 1.676e-17 2.981e-18
8605.521 1.458e-17 3.1e-18
8607.068 1.589e-17 3.104e-18
8608.614 1.68e-17 3.178e-18
8610.161 1.734e-17 3.343e-18
8611.708 1.869e-17 3.424e-18
8613.255 1.792e-17 3.688e-18
8614.801 1.315e-17 3.707e-18
8616.348 2.468e-17 4.173e-18
8617.895 1.958e-17 4.236e-18
8619.441 1.97e-17 4.394e-18
8620.988 1.933e-17 4.767e-18
8622.534 2.091e-17 4.965e-18
8624.081 1.77e-17 5.012e-18
8625.628 1.424e-17 4.943e-18
8627.174 1.377e-17 5.032e-18
8628.721 9.712e-18 5.126e-18
8630.267 1.8e-17 5.257e-18
8631.814 1.57e-17 5.089e-18
8633.36 1.766e-17 5.031e-18
8634.907 6.507e-18 4.639e-18
8636.454 1.846e-17 4.623e-18
8638.0 1.784e-17 4.43e-18
8639.548 1.976e-17 4.201e-18
8641.094 2.073e-17 4.093e-18
8642.641 1.723e-17 3.879e-18
8644.187 1.502e-17 3.841e-18
8645.734 2.415e-17 4.395e-18
8647.281 2.272e-17 4.824e-18
8648.827 1.702e-17 5.045e-18
8650.374 8.754e-18 5.151e-18
8651.92 1.938e-17 5.55e-18
8653.467 1.259e-17 5.208e-18
8655.015 1.146e-17 5.168e-18
8656.561 2.162e-17 5.518e-18
8658.108 1.719e-17 5.258e-18
8659.654 2.592e-17 5.422e-18
8661.201 1.964e-17 5.49e-18
8662.747 1.239e-17 5.026e-18
8664.294 1.061e-17 4.894e-18
8665.841 1.624e-17 5.025e-18
8667.388 2.635e-17 5.134e-18
8668.935 1.667e-17 4.707e-18
8670.481 1.66e-17 4.594e-18
8672.028 2.167e-17 4.728e-18
8673.575 2.172e-17 4.383e-18
8675.121 1.445e-17 4.164e-18
8676.668 1.711e-17 4.253e-18
8678.215 1.137e-17 3.877e-18
8679.762 1.398e-17 3.783e-18
8681.308 1.835e-17 4.116e-18
8682.855 7.754e-18 3.488e-18
8684.402 1.263e-17 3.55e-18
8685.948 1.229e-17 3.444e-18
8687.495 1.574e-17 3.439e-18
8689.042 1.506e-17 3.407e-18
8690.589 2.515e-17 3.779e-18
8692.136 2.587e-17 3.745e-18
8693.682 1.242e-17 3.34e-18
8695.229 1.59e-17 3.522e-18
8696.776 1.193e-17 3.418e-18
8698.323 1.728e-17 3.608e-18
8699.869 1.342e-17 3.472e-18
8701.416 2.174e-17 3.6e-18
8702.963 1.59e-17 3.436e-18
8704.509 2.225e-17 3.569e-18
8706.057 2.151e-17 3.682e-18
8707.603 2.241e-17 3.66e-18
8709.15 1.373e-17 3.326e-18
8710.697 1.749e-17 3.4e-18
8712.243 1.352e-17 3.153e-18
8713.791 2.209e-17 3.33e-18
8715.337 1.823e-17 3.165e-18
8716.884 1.591e-17 3.041e-18
8718.43 1.962e-17 3.075e-18
8719.977 1.649e-17 3.189e-18
8721.525 1.343e-17 2.933e-18
8723.071 1.278e-17 3.104e-18
8724.618 1.57e-17 3.206e-18
8726.164 1.51e-17 3.196e-18
8727.712 1.864e-17 3.325e-18
8729.258 1.547e-17 3.139e-18
8730.805 2.113e-17 3.297e-18
8732.352 2.08e-17 3.271e-18
8733.899 2.118e-17 3.23e-18
8735.446 1.764e-17 3.179e-18
8736.992 1.642e-17 3.234e-18
8738.539 1.462e-17 3.25e-18
8740.086 1.751e-17 3.244e-18
8741.633 1.711e-17 3.193e-18
8743.18 1.753e-17 3.241e-18
8744.726 1.616e-17 3.213e-18
8746.273 1.796e-17 3.35e-18
8747.82 1.639e-17 3.314e-18
8749.367 2.174e-17 3.458e-18
8750.914 1.616e-17 3.207e-18
8752.46 1.33e-17 3.301e-18
8754.008 1.487e-17 4.069e-18
8755.554 1.684e-17 5.347e-18
8757.101 7.727e-18 7.254e-18
8758.649 6.646e-18 8.339e-18
8760.195 9.892e-18 8.384e-18
8761.742 8.888e-18 8.316e-18
8763.288 1.005e-17 8.574e-18
8764.836 9.726e-18 9.039e-18
8766.382 2.376e-17 9.202e-18
8767.929 2.496e-17 8.823e-18
8769.476 5.426e-18 6.93e-18
8771.023 1.093e-17 5.126e-18
8772.57 9.472e-18 6.077e-18
8774.116 1.928e-17 8.482e-18
8775.664 2.763e-17 9.694e-18
8777.211 3.093e-17 9.669e-18
8778.757 1.92e-17 8.413e-18
8780.304 1.438e-17 6.182e-18
8781.851 1.966e-17 4.181e-18
8783.398 1.316e-17 3.389e-18
8784.944 1.381e-17 3.434e-18
8786.492 7.864e-18 4.304e-18
8788.039 9.562e-18 5.613e-18
8789.585 2.089e-17 6.037e-18
8791.133 1.691e-17 5.92e-18
8792.679 1.454e-17 4.981e-18
8794.226 2.282e-17 3.817e-18
8795.772 1.541e-17 3.296e-18
8797.32 1.646e-17 3.205e-18
8798.867 1.714e-17 3.196e-18
8800.413 1.666e-17 3.256e-18
8801.961 1.403e-17 3.135e-18
8803.507 1.592e-17 3.194e-18
8805.054 1.487e-17 3.256e-18
8806.602 1.751e-17 3.455e-18
8808.148 1.556e-17 3.588e-18
8809.695 2.121e-17 3.561e-18
8811.242 1.591e-17 3.51e-18
8812.789 1.5e-17 3.178e-18
8814.335 1.822e-17 3.308e-18
8815.883 1.048e-17 3.064e-18
8817.43 1.623e-17 3.128e-18
8818.976 1.691e-17 3.454e-18
8820.524 1.429e-17 4.389e-18
8822.07 1.591e-17 7.947e-18
8823.617 1.414e-17 1.2e-17
8825.165 3.114e-17 1.302e-17
8826.711 2.07e-17 1.285e-17
8828.258 1.913e-17 1.112e-17
8829.805 1.747e-17 7.185e-18
8831.352 1.703e-17 6.252e-18
8832.898 1.852e-17 7.886e-18
8834.446 1.459e-17 8.112e-18
8835.993 1.309e-17 8.009e-18
8837.539 2.446e-17 7.256e-18
8839.087 1.684e-17 4.809e-18
8840.633 1.407e-17 3.573e-18
8842.18 1.499e-17 3.426e-18
8843.728 2.128e-17 3.65e-18
8845.274 2.113e-17 4.582e-18
8846.822 1.455e-17 5.134e-18
8848.368 1.985e-17 5.389e-18
8849.915 1.739e-17 5.028e-18
8851.462 1.151e-17 4.275e-18
8853.009 1.155e-17 3.428e-18
8854.556 1.407e-17 3.104e-18
8856.103 1.793e-17 3.217e-18
8857.65 1.803e-17 3.314e-18
8859.196 1.456e-17 3.352e-18
8860.744 2.171e-17 3.667e-18
8862.29 1.722e-17 4.403e-18
8863.838 1.411e-17 6.139e-18
8865.385 1.416e-17 6.788e-18
8866.931 1.678e-17 6.847e-18
8868.479 1.599e-17 6.255e-18
8870.025 1.036e-17 4.356e-18
8871.572 1.756e-17 3.383e-18
8873.12 1.772e-17 3.083e-18
8874.666 1.676e-17 3.022e-18
8876.214 1.541e-17 3.023e-18
8877.76 1.507e-17 3.133e-18
8879.307 1.008e-17 3.419e-18
8880.854 1.046e-17 6.226e-18
8882.401 2.001e-17 9.91e-18
8883.948 1.659e-17 1.073e-17
8885.495 2.035e-17 1.073e-17
8887.042 1.334e-17 9.411e-18
8888.589 1.727e-17 5.631e-18
8890.136 1.388e-17 3.692e-18
8891.683 1.976e-17 3.386e-18
8893.23 1.49e-17 3.298e-18
8894.777 1.564e-17 3.172e-18
8896.324 1.863e-17 3.45e-18
8897.871 1.414e-17 4.227e-18
8899.417 1.543e-17 6.623e-18
8900.965 8.202e-18 7.134e-18
8902.512 1.074e-17 7.101e-18
8904.059 1.831e-17 6.738e-18
8905.606 2.004e-17 4.755e-18
8907.152 1.814e-17 3.689e-18
8908.7 1.164e-17 3.241e-18
8910.247 1.713e-17 3.305e-18
8911.794 1.796e-17 3.266e-18
8913.341 2.097e-17 3.974e-18
8914.887 1.296e-17 7.481e-18
8916.435 1.594e-17 1.06e-17
8917.981 1.191e-17 1.123e-17
8919.529 2.463e-17 1.111e-17
8921.076 2.73e-17 9.304e-18
8922.622 1.423e-17 5.231e-18
8924.17 1.228e-17 3.621e-18
8925.716 1.402e-17 3.613e-18
8927.264 2.258e-17 3.63e-18
8928.81 1.616e-17 3.34e-18
8930.357 1.687e-17 3.338e-18
8931.905 1.875e-17 3.199e-18
8933.451 1.387e-17 3.087e-18
8934.999 1.68e-17 3.182e-18
8936.545 1.123e-17 3.16e-18
8938.093 7.475e-18 3.923e-18
8939.64 2.645e-17 6.33e-18
8941.186 2.064e-17 6.775e-18
8942.734 1.39e-17 6.926e-18
8944.28 1.389e-17 6.5e-18
8945.828 1.214e-17 4.453e-18
8947.374 1.304e-17 3.318e-18
8948.921 1.713e-17 3.141e-18
8950.469 1.468e-17 3.179e-18
8952.015 1.25e-17 3.853e-18
8953.563 8.189e-18 7.439e-18
8955.109 1.011e-17 1.018e-17
8956.657 2.265e-18 1.005e-17
8958.204 3.163e-17 1.01e-17
8959.75 1.583e-17 7.943e-18
8961.298 2.003e-17 4.618e-18
8962.844 1.453e-17 3.505e-18
8964.392 1.416e-17 3.34e-18
8965.938 1.72e-17 3.26e-18
8967.486 1.27e-17 3.276e-18
8969.033 1.099e-17 3.205e-18
8970.579 1.764e-17 3.574e-18
8972.127 1.15e-17 3.28e-18
8973.673 1.307e-17 3.152e-18
8975.221 1.601e-17 3.165e-18
8976.768 1.568e-17 3.392e-18
8978.315 1.136e-17 3.276e-18
8979.862 1.239e-17 3.29e-18
8981.408 1.485e-17 3.345e-18
8982.956 1.518e-17 4.083e-18
8984.502 1.428e-17 5.527e-18
8986.05 1.803e-17 6.631e-18
8987.597 2.34e-17 7.332e-18
8989.144 2.284e-17 6.957e-18
8990.691 1.867e-17 4.99e-18
8992.237 1.755e-17 3.99e-18
8993.785 1.089e-17 3.263e-18
8995.331 8.418e-18 3.608e-18
8996.879 2.225e-17 6.26e-18
8998.426 1.653e-17 8.24e-18
8999.973 1.315e-17 8.755e-18
9001.52 1.493e-17 8.8e-18
9003.066 1.95e-17 6.494e-18
9004.614 1.436e-17 4.127e-18
9006.161 1.296e-17 3.119e-18
9007.708 1.521e-17 3.214e-18
9009.255 1.353e-17 2.993e-18
9010.802 1.154e-17 2.871e-18
9012.349 1.207e-17 3.004e-18
9013.895 1.558e-17 3.051e-18
9015.443 1.827e-17 3.166e-18
9016.99 1.549e-17 3.256e-18
9018.537 1.375e-17 3.219e-18
9020.084 1.167e-17 3.241e-18
9021.631 1.493e-17 3.408e-18
9023.178 1.033e-17 3.138e-18
9024.725 1.313e-17 3.258e-18
9026.272 1.744e-17 3.334e-18
9027.819 1.402e-17 3.214e-18
9029.366 1.648e-17 3.195e-18
9030.913 1.442e-17 3.073e-18
9032.46 1.326e-17 3.317e-18
9034.007 6.455e-18 3.936e-18
9035.554 1.464e-17 4.57e-18
9037.101 1.584e-17 4.805e-18
9038.648 1.631e-17 4.67e-18
9040.195 1.617e-17 3.884e-18
9041.742 1.118e-17 3.343e-18
9043.289 1.159e-17 3.252e-18
9044.836 1.032e-17 4.374e-18
9046.384 2.28e-17 5.797e-18
9047.93 8.851e-18 5.935e-18
9049.477 1.207e-17 5.843e-18
9051.024 1.579e-17 5.292e-18
9052.571 1.086e-17 3.652e-18
9054.119 1.534e-17 3.31e-18
9055.665 9.943e-18 3.025e-18
9057.213 1.005e-17 2.984e-18
9058.759 9.486e-18 3.026e-18
9060.306 9.065e-18 3.071e-18
9061.853 9.563e-18 3.243e-18
9063.4 1.418e-17 3.137e-18
9064.948 1.321e-17 3.363e-18
9066.494 1.41e-17 3.421e-18
9068.042 9.02e-18 3.136e-18
9069.588 1e-17 3.333e-18
9071.135 1.361e-17 3.542e-18
9072.683 1.354e-17 3.221e-18
9074.229 1.42e-17 2.988e-18
9075.777 1.338e-17 3.04e-18
9077.323 9.971e-18 2.992e-18
9078.871 8.925e-18 3.146e-18
9080.417 1.265e-17 3.338e-18
9081.964 1.182e-17 3.178e-18
9083.512 1.304e-17 3.293e-18
9085.058 9.18e-18 3.039e-18
9086.606 1.031e-17 3.297e-18
9088.152 1.338e-17 3.513e-18
9089.7 1.426e-17 4e-18
9091.247 9.039e-18 4.075e-18
9092.793 1.072e-17 3.929e-18
9094.341 1.01e-17 3.727e-18
9095.887 1.78e-17 3.663e-18
9097.435 1.534e-17 3.716e-18
9098.981 1.398e-17 4.598e-18
9100.528 7.644e-18 4.921e-18
9102.076 1.51e-17 4.987e-18
9103.622 1.953e-17 4.952e-18
9105.17 1.186e-17 4.05e-18
9106.716 1.777e-17 3.37e-18
9108.264 1.557e-17 3.168e-18
9109.81 1.695e-17 3.1e-18
9111.357 1.079e-17 2.791e-18
9112.905 1.569e-17 3.12e-18
9114.451 1.107e-17 3.015e-18
9115.999 1.404e-17 3.272e-18
9117.545 1.467e-17 3.402e-18
9119.092 1.305e-17 3.235e-18
9120.64 1.26e-17 3.105e-18
9122.186 1.1e-17 2.764e-18
9123.734 1.32e-17 3.01e-18
9125.28 1.335e-17 3.216e-18
9126.828 1.144e-17 3.069e-18
9128.374 1.2e-17 3.211e-18
9129.921 1.415e-17 3.455e-18
9131.469 1.244e-17 3.395e-18
9133.015 1.65e-17 3.58e-18
9134.563 9.745e-18 3.504e-18
9136.109 1.714e-17 3.531e-18
9137.656 1.549e-17 3.415e-18
9139.204 8.936e-18 2.956e-18
9140.75 1.572e-17 3.21e-18
9142.298 1.428e-17 3.13e-18
9143.844 1.522e-17 3.091e-18
9145.391 1.314e-17 3.127e-18
9146.938 1.04e-17 3.314e-18
9148.485 1.376e-17 3.911e-18
9150.033 1.816e-17 4.379e-18
9151.579 1.442e-17 4.593e-18
9153.126 1.771e-17 4.487e-18
9154.673 1.717e-17 4.134e-18
9156.22 1.175e-17 4.12e-18
9157.768 8.737e-18 4.191e-18
9159.314 1.255e-17 4.358e-18
9160.861 1.464e-17 4.115e-18
9162.408 8.657e-18 3.79e-18
9163.955 1.042e-17 3.232e-18
9165.501 1.433e-17 3.184e-18
9167.049 1.067e-17 3.15e-18
9168.596 1.132e-17 3.191e-18
9170.143 1.449e-17 3.307e-18
9171.69 1.067e-17 3.516e-18
9173.236 1.283e-17 3.422e-18
9174.784 1.462e-17 3.477e-18
9176.33 1.521e-17 3.404e-18
9177.878 1.09e-17 3.179e-18
9179.425 1.512e-17 3.388e-18
9180.971 9.692e-18 3.257e-18
9182.519 1.38e-17 3.516e-18
9184.065 1.56e-17 3.407e-18
9185.612 1.165e-17 3.23e-18
9187.16 1.488e-17 3.263e-18
9188.706 2.184e-17 3.428e-18
9190.254 1.392e-17 3.195e-18
9191.8 2.09e-17 3.415e-18
9193.347 1.439e-17 3.326e-18
9194.894 1.495e-17 3.294e-18
9196.441 1.226e-17 3.2e-18
9197.988 1.376e-17 3.146e-18
9199.535 2.1e-17 3.376e-18
9201.082 1.207e-17 3.148e-18
9202.628 1.485e-17 3.181e-18
9204.176 1.293e-17 3.156e-18
9205.723 1.633e-17 3.275e-18
9207.27 1.626e-17 3.371e-18
9208.817 1.482e-17 3.35e-18
9210.363 1.105e-17 3.176e-18
9211.911 1.514e-17 3.564e-18
9213.457 1.408e-17 3.925e-18
9215.004 1.671e-17 4.025e-18
9216.552 1.685e-17 4.139e-18
9218.098 1.597e-17 3.71e-18
9219.645 1.678e-17 3.659e-18
9221.192 1.336e-17 3.874e-18
9222.739 2.137e-17 4.168e-18
9224.285 1.272e-17 3.884e-18
9225.833 1.563e-17 3.98e-18
9227.38 1.294e-17 3.541e-18
9228.926 1.492e-17 3.285e-18
9230.474 1.899e-17 3.5e-18
9232.02 1.694e-17 3.381e-18
9233.567 1.729e-17 3.313e-18
9235.115 1.492e-17 3.377e-18
9236.661 1.389e-17 3.27e-18
9238.208 1.423e-17 3.244e-18
9239.755 1.682e-17 3.455e-18
9241.302 2.011e-17 3.457e-18
9242.848 1.552e-17 3.401e-18
9244.396 1.615e-17 3.442e-18
9245.943 1.787e-17 3.573e-18
9247.489 1.668e-17 3.796e-18
9249.037 1.3e-17 3.59e-18
9250.583 1.526e-17 3.597e-18
9252.13 1.344e-17 3.457e-18
9253.678 1.567e-17 3.401e-18
9255.224 1.432e-17 3.275e-18
9256.771 1.529e-17 3.285e-18
9258.317 1.245e-17 3.273e-18
9259.865 1.698e-17 3.559e-18
9261.411 1.942e-17 3.547e-18
9262.958 1.45e-17 3.284e-18
9264.506 9.518e-18 2.911e-18
9266.052 1.982e-17 3.336e-18
9267.599 1.63e-17 3.069e-18
9269.146 1.752e-17 3.333e-18
9270.693 1.793e-17 3.416e-18
9272.24 1.27e-17 3.295e-18
9273.786 1.065e-17 2.871e-18
9275.334 1.722e-17 3.476e-18
9276.88 1.485e-17 3.613e-18
9278.427 1.189e-17 3.562e-18
9279.974 1.51e-17 3.459e-18
9281.521 1.264e-17 3.553e-18
9283.068 1.782e-17 3.857e-18
9284.614 1.782e-17 4.083e-18
9286.162 1.49e-17 4.068e-18
9287.708 8.86e-18 3.632e-18
9289.255 1.881e-17 3.991e-18
9290.801 1.965e-17 4.362e-18
9292.349 1.913e-17 4.34e-18
9293.896 1.837e-17 4.373e-18
9295.442 1.45e-17 4.071e-18
9296.99 1.598e-17 4.165e-18
9298.536 1.668e-17 4.22e-18
9300.083 9.013e-18 4.753e-18
9301.63 1.787e-17 7.541e-18
9303.177 1.493e-17 1.06e-17
9304.724 2.931e-18 1.243e-17
9306.27 2.94e-18 1.392e-17
9307.817 1.718e-17 1.502e-17
9309.364 2.991e-17 1.635e-17
9310.911 1.291e-17 1.554e-17
9312.458 1.938e-17 1.587e-17
9314.004 2.358e-17 1.75e-17
9315.552 1.865e-17 1.289e-17
9317.098 2.515e-17 8.95e-18
9318.645 2.432e-17 1.072e-17
9320.192 1.753e-17 1.428e-17
9321.738 1.036e-17 1.641e-17
9323.286 3.323e-17 1.793e-17
9324.832 3.348e-17 1.529e-17
9326.379 1.633e-17 7.966e-18
9327.925 1.138e-17 5.512e-18
9329.473 9.622e-18 5.649e-18
9331.02 1.51e-17 6.221e-18
9332.566 1.18e-17 7.306e-18
9334.113 2.417e-17 1.07e-17
9335.659 2.526e-17 1.115e-17
9337.207 3.145e-17 1.06e-17
9338.754 2.014e-17 1.042e-17
9340.3 9.874e-18 8.342e-18
9341.847 1.288e-17 8.591e-18
9343.393 1.226e-17 8.462e-18
9344.941 2.199e-17 7.036e-18
9346.487 2.452e-17 5.991e-18
9348.034 1.725e-17 5.171e-18
9349.581 2.235e-17 5.305e-18
9351.127 1.916e-17 5.923e-18
9352.675 1.088e-17 6.145e-18
9354.221 8.605e-18 6.129e-18
9355.768 1.803e-17 6.408e-18
9357.314 1.764e-17 6.181e-18
9358.861 2.201e-17 5.518e-18
9360.408 1.296e-17 4.61e-18
9361.955 1.177e-17 4.752e-18
9363.502 1.838e-17 5.329e-18
9365.048 1.665e-17 5.813e-18
9366.595 1.209e-17 5.974e-18
9368.142 2.234e-17 8.357e-18
9369.688 2.476e-19 1.2e-17
9371.236 5.962e-17 2.001e-17
9372.782 4.837e-17 2.329e-17
9374.329 -6.796e-20 2.421e-17
9375.875 2.406e-17 2.441e-17
9377.422 -1.26e-17 2.31e-17
9378.969 8.331e-18 1.253e-17
9380.515 3.882e-18 7.713e-18
9382.063 1.804e-17 6.795e-18
9383.609 1.5e-17 6.329e-18
9385.156 1.492e-17 5.193e-18
9386.703 2.108e-17 4.898e-18
9388.249 1.356e-17 4.231e-18
9389.796 1.587e-17 3.94e-18
9391.342 1.412e-17 3.739e-18
9392.889 1.164e-17 3.932e-18
9394.436 8.669e-18 3.943e-18
9395.983 1.874e-17 4.79e-18
9397.53 1.857e-17 6.621e-18
9399.076 1.687e-17 8.157e-18
9400.623 2.44e-17 8.251e-18
9402.169 1.571e-17 7.882e-18
9403.716 1.858e-17 6.16e-18
9405.262 1.845e-17 4.594e-18
9406.809 8.505e-18 3.866e-18
9408.356 9.289e-18 4.382e-18
9409.902 2.361e-17 4.748e-18
9411.45 2.027e-17 4.495e-18
9412.996 1.894e-17 4.382e-18
9414.543 1.912e-17 6.185e-18
9416.09 1.111e-17 9.65e-18
9417.636 2.985e-17 1.095e-17
9419.183 1.504e-17 1.028e-17
9420.729 2.309e-17 9.285e-18
9422.276 1.376e-17 6.489e-18
9423.822 1.537e-17 5.7e-18
9425.369 1.492e-17 6.285e-18
9426.916 1.928e-17 6.754e-18
9428.462 1.837e-17 5.573e-18
9430.009 1.828e-17 4.828e-18
9431.555 1.404e-17 4.349e-18
9433.102 1.236e-17 4.632e-18
9434.65 2.09e-17 9.941e-18
9436.196 1.501e-17 1.697e-17
9437.743 3.866e-17 2.308e-17
9439.289 3.86e-17 2.616e-17
9440.836 -1.384e-17 2.212e-17
9442.382 1.022e-17 1.098e-17
9443.929 1.671e-17 6.482e-18
9445.476 1.667e-17 5.327e-18
9447.022 1.076e-17 5.132e-18
9448.569 1.431e-17 4.84e-18
9450.115 1.879e-17 4.963e-18
9451.662 1.29e-17 5.186e-18
9453.209 3.99e-18 7.782e-18
9454.755 1.926e-17 1.37e-17
9456.302 4.561e-17 1.533e-17
9457.848 2.897e-18 1.595e-17
9459.395 3.469e-17 1.446e-17
9460.941 2.32e-17 8.984e-18
9462.488 1.61e-17 5.174e-18
9464.035 1.684e-17 4.553e-18
9465.581 1.714e-17 4.83e-18
9467.128 2.148e-17 5.07e-18
9468.674 1.915e-17 4.941e-18
9470.221 2.326e-17 5.189e-18
9471.767 1.334e-17 9.289e-18
9473.314 6.851e-17 1.526e-17
9474.86 3.132e-17 1.635e-17
9476.406 2.099e-17 1.636e-17
9477.953 1.54e-17 1.631e-17
9479.499 5.488e-18 1.094e-17
9481.046 2.32e-17 7.276e-18
9482.593 1.192e-17 5.56e-18
9484.139 1.314e-17 4.597e-18
9485.686 1.592e-17 4.489e-18
9487.232 1.68e-17 4.224e-18
9488.779 1.045e-17 4.153e-18
9490.325 9.379e-18 4.567e-18
9491.872 6.387e-18 5.173e-18
9493.419 1.609e-17 5.771e-18
9494.965 1.96e-17 5.798e-18
9496.512 5.251e-18 5.749e-18
9498.057 2.144e-17 1.138e-17
9499.604 -3.187e-18 1.569e-17
9501.151 2.6e-17 1.45e-17
9502.697 2.199e-17 1.14e-17
9504.244 2.012e-17 8.36e-18
9505.79 1.633e-17 5.057e-18
9507.337 1.814e-17 3.985e-18
9508.883 1.651e-17 3.82e-18
9510.43 1.505e-17 4.031e-18
9511.977 1.046e-17 4.202e-18
9513.522 1.25e-17 5.23e-18
9515.069 1.099e-17 9.186e-18
9516.615 2.566e-17 1.222e-17
9518.162 1.228e-17 1.348e-17
9519.708 1.677e-17 1.22e-17
9521.255 8.415e-18 9.209e-18
9522.802 9.602e-18 5.701e-18
9524.347 1.885e-17 5.424e-18
9525.894 8.032e-18 4.874e-18
9527.44 1.275e-17 5.154e-18
9528.987 1.677e-17 5.283e-18
9530.534 1.61e-17 4.78e-18
9532.08 1.411e-17 4.632e-18
9533.626 1.135e-17 5.224e-18
9535.172 1.217e-17 5.481e-18
9536.719 1.564e-17 5.088e-18
9538.265 1.776e-17 4.961e-18
9539.812 9.698e-18 4.375e-18
9541.359 2.136e-17 5.04e-18
9542.904 7.349e-18 4.616e-18
9544.451 1.059e-17 4.844e-18
9545.997 1.209e-17 4.742e-18
9547.544 1.287e-17 6.02e-18
9549.091 1.504e-17 8.883e-18
9550.636 2.164e-17 9.796e-18
9552.183 1.094e-17 1.071e-17
9553.729 2.973e-17 1.114e-17
9555.276 1.201e-17 7.306e-18
9556.821 1.855e-17 5.9e-18
9558.368 2.122e-17 5.43e-18
9559.915 1.574e-17 5.185e-18
9561.461 1.046e-17 6.582e-18
9563.007 1.325e-17 1.21e-17
9564.553 2.161e-17 1.62e-17
9566.1 1.93e-17 1.569e-17
9567.647 2.389e-17 1.439e-17
9569.192 2.548e-17 9.932e-18
9570.739 6.863e-18 5.641e-18
9572.285 1.535e-17 4.355e-18
9573.832 1.44e-17 4.217e-18
9575.377 1.78e-17 4.24e-18
9576.924 1.308e-17 4.45e-18
9578.471 1.038e-17 4.833e-18
9580.017 7.358e-18 4.74e-18
9581.563 1.233e-17 4.606e-18
9583.109 1.37e-17 4.285e-18
9584.656 9.66e-18 3.905e-18
9586.201 9.457e-18 4.562e-18
9587.748 1.146e-17 4.84e-18
9589.295 2.188e-17 5.581e-18
9590.84 6.031e-18 5.176e-18
9592.387 1.296e-17 5.179e-18
9593.933 1.271e-17 4.852e-18
9595.479 1.506e-17 4.686e-18
9597.026 1.87e-17 4.501e-18
9598.572 1.166e-17 4.271e-18
9600.118 1.638e-17 4.389e-18
9601.664 1.722e-17 4.674e-18
9603.211 4.172e-18 6.116e-18
9604.756 1.726e-17 7.901e-18
9606.303 1.767e-17 8.088e-18
9607.85 1.244e-17 7.177e-18
9609.395 2.429e-17 5.845e-18
9610.942 1.166e-17 4.751e-18
9612.488 1.537e-17 4.604e-18
9614.034 1.88e-17 4.87e-18
9615.581 1.973e-17 5.964e-18
9617.126 1.64e-17 7.958e-18
9618.673 1.21e-17 8.508e-18
9620.219 2.573e-17 9.501e-18
9621.765 2.64e-17 8.573e-18
9623.311 1.755e-17 6.415e-18
9624.857 1.319e-17 5.374e-18
9626.404 1.761e-17 4.945e-18
9627.95 1.745e-17 4.958e-18
9629.496 1.03e-17 4.421e-18
9631.042 1.756e-17 4.385e-18
9632.588 1.852e-17 4.483e-18
9634.134 5.917e-18 4.329e-18
9635.68 9.423e-18 4.705e-18
9637.227 9.315e-18 4.966e-18
9638.772 1.648e-17 4.92e-18
9640.319 1.323e-17 4.584e-18
9641.865 1.451e-17 4.396e-18
9643.411 8.721e-18 4.695e-18
9644.958 1.673e-17 4.767e-18
9646.503 1.405e-17 4.633e-18
9648.05 1.473e-17 4.535e-18
9649.595 1.697e-17 5.01e-18
9651.142 6.951e-18 4.659e-18
9652.687 1.37e-17 5.111e-18
9654.234 1.083e-17 5.168e-18
9655.78 1.955e-17 5.464e-18
9657.326 1.327e-17 5.373e-18
9658.872 1.984e-17 5.788e-18
9660.418 1.208e-17 5.779e-18
9661.964 1.061e-17 5.723e-18
9663.511 1.475e-17 6.623e-18
9665.056 6.763e-18 7.922e-18
9666.603 2.307e-17 8.845e-18
9668.148 2.046e-17 8.694e-18
9669.695 5.092e-18 7.919e-18
9671.24 2.734e-18 6.483e-18
9672.786 3.701e-18 5.583e-18
9674.333 2.225e-17 6.022e-18
9675.878 1.971e-17 6.743e-18
9677.425 5.052e-18 8.16e-18
9678.97 1.347e-17 1.048e-17
9680.517 6.187e-18 1.093e-17
9682.063 1.301e-17 9.829e-18
9683.608 5.715e-18 7.551e-18
9685.155 1.203e-17 5.73e-18
9686.7 1.847e-17 6.392e-18
9688.247 1.563e-17 6.581e-18
9689.792 6.071e-18 6.75e-18
9691.339 1.575e-17 6.416e-18
9692.885 3.726e-19 5.465e-18
9694.43 1.988e-17 7.556e-18
9695.977 7.056e-18 1.052e-17
9697.522 3.948e-18 1.126e-17
9699.068 1.01e-17 1.14e-17
9700.614 1.595e-17 9.89e-18
9702.16 6.839e-18 6.181e-18
9703.706 2.039e-17 5.196e-18
9705.252 7.45e-18 4.973e-18
9706.798 9.227e-18 5.534e-18
9708.344 1.134e-17 7.533e-18
9709.89 1.484e-17 8.266e-18
9711.436 1.709e-17 8.156e-18
9712.982 1.136e-17 7.763e-18
9714.528 2.384e-17 7.974e-18
9716.073 2.12e-17 1.107e-17
9717.619 -6.008e-18 1.187e-17
9719.165 7.546e-18 1.242e-17
9720.711 1.245e-17 1.186e-17
9722.257 8.626e-18 8.371e-18
9723.803 1.075e-17 5.815e-18
9725.349 9.203e-18 5.132e-18
9726.894 1.195e-17 5.437e-18
9728.44 1.742e-17 5.499e-18
9729.987 7.687e-18 5.432e-18
9731.532 1.004e-17 5.968e-18
9733.078 1.29e-17 7.308e-18
9734.624 1.684e-17 9.327e-18
9736.17 1.818e-17 9.924e-18
9737.715 -5.849e-18 8.731e-18
9739.261 1.036e-17 7.856e-18
9740.807 1.301e-17 6.373e-18
9742.353 8.761e-18 6.465e-18
9743.899 1.226e-17 6.638e-18
9745.444 8.438e-18 6.523e-18
9746.99 1.333e-17 6.026e-18
9748.536 1.587e-17 5.484e-18
9750.082 7.874e-18 4.912e-18
9751.628 3.991e-18 4.502e-18
9753.173 5.891e-18 4.793e-18
9754.719 1.173e-17 5.179e-18
9756.265 2.033e-17 5.178e-18
9757.811 9.02e-18 4.814e-18
9759.357 1.01e-17 5.068e-18
9760.902 1.398e-17 4.855e-18
9762.448 1.541e-17 4.907e-18
9763.993 8.857e-18 4.515e-18
9765.54 1.124e-17 4.66e-18
9767.085 1.838e-17 4.892e-18
9768.631 1.478e-17 4.465e-18
9770.177 8.145e-18 4.462e-18
9771.722 1.275e-17 4.729e-18
9773.268 1.384e-17 4.678e-18
9774.813 7.078e-18 4.792e-18
9776.359 9.012e-18 4.784e-18
9777.905 4.277e-18 4.789e-18
9779.451 1.296e-17 5.371e-18
9780.997 7.29e-18 4.93e-18
9782.542 7.826e-18 5.209e-18
9784.088 5.909e-18 6.01e-18
9785.633 1.804e-18 8.755e-18
9787.179 1.727e-17 1.433e-17
9788.725 -5.809e-18 1.635e-17
9790.27 2.989e-17 1.705e-17
9791.816 -1.174e-18 1.636e-17
9793.361 1.169e-17 1.131e-17
9794.907 9.349e-18 8.551e-18
9796.453 1.291e-17 1.016e-17
9797.998 1.999e-17 1.065e-17
9799.544 5.271e-18 1.048e-17
9801.089 8.419e-18 9.229e-18
9802.635 1.985e-17 7.084e-18
9804.18 5.183e-18 6.226e-18
9805.726 1.33e-17 6.195e-18
9807.272 1.578e-17 6.992e-18
9808.817 1.278e-17 7.94e-18
9810.363 1.516e-17 8.199e-18
9811.908 1.117e-17 7.623e-18
9813.454 1.132e-17 7.532e-18
9814.999 1.234e-17 6.697e-18
9816.545 2.415e-17 6.434e-18
9818.091 1.641e-17 6.108e-18
9819.636 1.252e-17 5.447e-18
9821.182 1.136e-17 5.198e-18
9822.727 8.428e-18 5.272e-18
9824.273 1.513e-17 5.927e-18
9825.819 5.778e-18 5.785e-18
9827.364 1.589e-17 6.11e-18
9828.91 3.133e-18 5.661e-18
9830.455 1.086e-17 5.491e-18
9832.001 1.234e-17 5.176e-18
9833.546 1.794e-17 5.396e-18
9835.091 1.211e-17 4.995e-18
9836.637 6.799e-18 4.851e-18
9838.182 7.084e-18 4.812e-18
9839.728 9.784e-18 4.934e-18
9841.273 1.962e-17 5.312e-18
9842.819 -3.852e-19 5.338e-18
9844.365 1.373e-17 8.257e-18
9845.91 1.574e-17 1.065e-17
9847.455 1.218e-17 1.072e-17
9849.0 1.811e-17 1.029e-17
9850.546 5.044e-18 8.257e-18
9852.091 -5.413e-19 5.5e-18
9853.637 3.752e-18 4.966e-18
9855.183 6.03e-18 4.938e-18
9856.727 7.143e-18 4.782e-18
9858.273 9.345e-18 4.88e-18
9859.818 1.297e-17 5.401e-18
9861.364 1.074e-17 5.109e-18
9862.91 1.563e-17 5.587e-18
9864.454 1.611e-17 5.709e-18
9866.0 1.108e-17 6.173e-18
9867.545 -7.362e-20 1.092e-17
9869.091 -3.876e-18 1.677e-17
9870.635 2.023e-18 1.759e-17
9872.181 3.308e-17 1.728e-17
9873.727 8.423e-18 1.491e-17
9875.272 1.811e-17 9.08e-18
9876.817 7.123e-18 6.207e-18
9878.362 3.95e-18 5.322e-18
9879.908 1.183e-17 5.663e-18
9881.453 6.186e-18 5.478e-18
9882.998 7.661e-18 6.109e-18
9884.544 1.518e-17 6.413e-18
9886.089 2.978e-18 5.912e-18
9887.634 6.229e-18 5.932e-18
9889.179 1.259e-17 6.512e-18
9890.725 2.534e-17 9.915e-18
9892.27 -1.962e-19 1.132e-17
9893.815 4.875e-18 1.202e-17
9895.361 2.682e-17 1.216e-17
9896.905 6.81e-18 9.677e-18
9898.451 1.117e-17 6.306e-18
9899.996 -6.573e-19 5.365e-18
9901.541 1.604e-17 5.898e-18
9903.087 6.811e-18 5.501e-18
9904.631 6.597e-18 5.402e-18
9906.177 1.024e-17 5.501e-18
9907.722 5.804e-18 5.743e-18
9909.267 8.115e-18 7.917e-18
9910.813 1.819e-17 1.407e-17
9912.357 1.457e-17 1.704e-17
9913.903 1.048e-18 1.72e-17
9915.448 4.61e-17 1.697e-17
9916.993 -3.341e-18 1.21e-17
9918.538 1.168e-17 7.691e-18
9920.083 1.529e-17 6.272e-18
9921.629 3.711e-18 5.549e-18
9923.173 1.153e-17 5.614e-18
9924.719 8.209e-18 5.468e-18
9926.263 5.442e-18 5.834e-18
9927.809 -4.497e-19 5.437e-18
9929.354 6.921e-18 5.858e-18
9930.899 1.252e-17 5.956e-18
9932.445 1.215e-17 5.78e-18
9933.989 7.973e-18 5.985e-18
9935.535 5.989e-18 6.283e-18
9937.079 1.21e-17 8.664e-18
9938.624 1.453e-17 1.248e-17
9940.17 2.066e-17 1.409e-17
9941.714 -9.021e-18 1.68e-17
9943.26 3.841e-17 1.969e-17
9944.804 1.159e-17 1.973e-17
9946.35 -2.65e-18 1.911e-17
9947.894 2.353e-17 1.679e-17
9949.44 1.481e-17 1.253e-17
9950.985 1.972e-17 1.005e-17
9952.529 1.638e-17 1.233e-17
9954.075 -1.003e-17 1.514e-17
9955.619 5.48e-18 1.645e-17
9957.165 -1.571e-18 1.74e-17
9958.71 2.794e-17 1.825e-17
9960.254 -2.13e-17 1.641e-17
9961.8 2.381e-17 1.6e-17
9963.344 1.886e-17 1.433e-17
9964.89 1.132e-17 1.007e-17
9966.434 1.148e-17 7.849e-18
9967.979 8.842e-18 8.285e-18
9969.525 6.997e-18 9.514e-18
9971.069 -3.105e-18 1.01e-17
9972.614 5.562e-18 1.016e-17
9974.159 -2.645e-18 9.149e-18
9975.704 6.989e-19 8.26e-18
9977.249 8.596e-18 7.681e-18
9978.793 5.681e-18 7.235e-18
9980.339 8.194e-18 7.251e-18
9981.883 5.253e-18 6.373e-18
9983.428 5.743e-18 6.17e-18
9984.973 1.28e-17 6.307e-18
9986.518 5.827e-18 6.077e-18
9988.063 1.619e-17 6.25e-18
9989.607 2.058e-18 6.273e-18
9991.153 7.097e-18 6.173e-18
9992.697 1.124e-17 6.486e-18
9994.242 4.031e-18 6.382e-18
9995.786 -2.448e-18 7.502e-18
9997.332 1.769e-17 9.409e-18
9998.877 1.105e-17 9.75e-18
10000.421 3.691e-18 9.736e-18
10001.966 2.716e-17 9.517e-18
10003.51 5.321e-18 7.963e-18
10005.056 1.606e-17 7.71e-18
10006.601 3.853e-18 8.137e-18
10008.145 -9.662e-18 1.322e-17
10009.69 7.933e-18 2.114e-17
10011.234 1.42e-17 2.41e-17
10012.779 3.41e-17 2.461e-17
10014.323 3.818e-17 2.238e-17
10015.869 1.691e-17 1.591e-17
10017.414 5.997e-18 1.063e-17
10018.958 1.467e-17 8.948e-18
10020.503 6.353e-18 9.641e-18
10022.047 -3.846e-18 1.302e-17
10023.592 1.546e-17 1.46e-17
10025.137 1.996e-17 1.504e-17
10026.681 2.405e-17 1.407e-17
10028.226 2.761e-18 1.058e-17
10029.77 1.533e-17 8.606e-18
10031.316 8.198e-18 7.143e-18
10032.86 -3.896e-19 7.159e-18
10034.405 1.486e-17 7.722e-18
10035.95 2.521e-17 7.753e-18
10037.494 3.071e-18 7.419e-18
10039.039 8.473e-18 8.536e-18
10040.583 1.241e-18 9.709e-18
10042.128 1.119e-17 1.036e-17
10043.673 3.541e-17 1.098e-17
10045.217 4.687e-18 9.79e-18
10046.762 1.588e-17 8.332e-18
10048.306 8.746e-18 7.513e-18
10049.851 1.592e-17 6.936e-18
10051.395 9.621e-18 7.17e-18
10052.94 1.017e-17 7.291e-18
10054.485 1.278e-20 7.569e-18
10056.028 1.722e-17 9.329e-18
10057.573 -1.214e-17 1.169e-17
10059.117 -7.302e-18 1.354e-17
10060.662 1.538e-17 1.391e-17
10062.206 2.357e-17 1.296e-17
10063.751 -2.129e-18 1.066e-17
10065.296 1.146e-17 9.689e-18
10066.84 6.844e-18 1.048e-17
10068.385 2.702e-17 1.179e-17
10069.929 1.894e-17 1.134e-17
10071.473 -1.57e-17 1.049e-17
10073.018 3.703e-18 1.012e-17
10074.562 5.056e-18 8.838e-18
10076.107 1.03e-17 8.928e-18
10077.651 2.438e-17 1.222e-17
10079.196 2.81e-18 1.738e-17
10080.739 1.031e-17 2.044e-17
10082.284 -3.194e-17 2.086e-17
10083.829 2.444e-17 1.992e-17
10085.373 -6.805e-18 1.488e-17
10086.918 -7.818e-18 1.063e-17
10088.461 3.507e-18 8.994e-18
10090.006 2.134e-17 9.074e-18
10091.551 6.133e-18 8.409e-18
10093.095 5.348e-18 8.594e-18
10094.639 1.451e-17 8.881e-18
10096.183 7.512e-18 8.97e-18
10097.728 1.628e-17 9.623e-18
10099.272 8.266e-18 1.112e-17
10100.816 -1.246e-17 1.391e-17
10102.361 -1.094e-17 1.518e-17
10103.905 2.731e-17 1.599e-17
10105.45 6.161e-18 1.435e-17
10106.993 5.347e-18 1.175e-17
10108.538 8.871e-18 9.983e-18
10110.083 7.757e-18 9.165e-18
10111.626 -5.575e-18 8.804e-18
10113.171 1.548e-17 9.535e-18
10114.715 9.471e-18 9.091e-18
10116.259 1.494e-17 9.436e-18
10117.803 7.236e-18 1.01e-17
10119.347 1.748e-17 1.396e-17
10120.892 1.495e-17 2.095e-17
10122.436 -1.19e-17 2.469e-17
10123.98 2.055e-17 2.549e-17
10125.524 2.008e-17 2.383e-17
10127.068 -3.186e-18 1.903e-17
10128.612 1.138e-17 1.387e-17
10130.157 4.25e-18 1.189e-17
10131.701 7.708e-18 1.174e-17
10133.245 7.219e-18 1.141e-17
10134.789 6.287e-19 1.1e-17
10136.333 1.089e-17 1.089e-17
10137.877 8.567e-18 1.076e-17
10139.422 1.097e-17 1.117e-17
10140.965 2.106e-17 1.173e-17
10142.51 2.188e-18 1.2e-17
10144.053 2.126e-17 1.308e-17
10145.598 -1.338e-17 1.256e-17
10147.141 2.49e-18 1.321e-17
10148.686 1.639e-17 1.525e-17
10150.23 1.825e-17 1.779e-17
10151.774 3.355e-17 1.941e-17
10153.318 2.461e-19 1.916e-17
10154.862 1.78e-17 1.95e-17
10156.406 2.019e-17 1.782e-17
10157.95 3.067e-17 1.645e-17
10159.494 1.963e-17 1.539e-17
10161.038 1.579e-17 1.54e-17
10162.582 3.008e-17 1.541e-17
10164.126 4.242e-17 1.57e-17
10165.669 7.894e-18 1.53e-17
10167.214 1.673e-17 1.822e-17
10168.758 -1.451e-17 2.537e-17
10170.301 -1.083e-17 2.928e-17
10171.846 3.447e-17 3.122e-17
10173.389 2.347e-17 2.866e-17
10174.933 -7.992e-18 2.323e-17
10176.478 -1.053e-17 1.811e-17
10178.021 -8.554e-19 1.596e-17
10179.565 -4.86e-18 1.701e-17
10181.109 3.835e-17 1.783e-17
10182.653 -7.229e-18 1.674e-17
10184.196 1.633e-17 1.696e-17
10185.741 2.943e-18 1.939e-17
10187.285 2.067e-17 2.397e-17
10188.828 -5.595e-18 2.608e-17
10190.372 3.765e-17 2.644e-17
10191.916 3.567e-18 2.413e-17
10193.46 2.03e-17 2.051e-17
10195.003 1.677e-18 1.58e-17
10196.547 1.797e-17 1.519e-17
10198.091 2.597e-17 1.54e-17
10199.635 1.401e-17 1.764e-17
10201.179 7.531e-18 1.977e-17
10202.722 1.141e-17 2.122e-17
10204.266 4.498e-18 2.13e-17
10205.81 -1.197e-17 2.222e-17
10207.353 1.463e-17 2.654e-17
10208.898 2.832e-17 3.062e-17
10210.441 1.328e-17 3.22e-17
10211.985 3.857e-17 3.168e-17
10213.528 -1.268e-17 2.798e-17
10215.072 1.491e-17 2.181e-17
10216.616 4.864e-18 1.709e-17
10218.159 3.006e-17 1.65e-17
10219.703 1.067e-17 1.616e-17
10221.246 2.526e-17 1.754e-17
10222.791 -1.183e-17 2.009e-17
10224.335 3.363e-17 2.445e-17
10225.878 4.507e-17 2.598e-17
10227.422 1.107e-17 2.637e-17
10228.965 -1.659e-17 2.542e-17
10230.509 4.485e-18 2.422e-17
10232.052 -4.047e-18 2.263e-17
10233.596 -1.377e-17 2.059e-17
10235.14 1.36e-17 1.811e-17
10236.683 -1.524e-17 1.61e-17
