# SIMPLE = T / Written by IDL: Tue Apr 30 16:35:33 2019
# BITPIX = -32 / IEEE single precision floating point
# NAXIS = 2 / number of data axes
# NAXIS1 = 311 /Number of positions along axis 1
# NAXIS2 = 2835 /Number of positions along axis 2
# EXTEND = T / FITS dataset may contain extensions
# COMMENT FITS (Flexible Image Transport System) format defined in Astronomy and
# COMMENT Astrophysics Supplement Series v44/p363, v44/p371, v73/p359, v73/p365.
# COMMENT Contact the NASA Science Office of Standards and Technology for the
# COMMENT FITS Definition document #100 and other FITS information.
# BZERO = 0 / offset data range to that of unsigned short
# BSCALE = 1 / default scaling factor
# OBJECT = 'ZTF18aapaeye' / object title
# OBSERVER= 'Lin Yan ' / observer
# IMGTYPE = 'object ' / observation type
# GAIN = 0.72 / e-/adu
# RON = 2.5 / system noise e-
# DICHROIC= 'D55 ' / Dichroic
# APERTURE= '1.5 ' / aperture (arcsecs)
# TURRET = 'APERTURE' / turret position
# LAMPS = '0000000 ' / lamps: D-FeAr-Hg-Ar-Ne-He-InCand
# BFILTER = 'OPEN ' / filter wheel
# OEXPTIME= 600. / originaly req. exposure time
# EXPTIME = 600. / actual exposure time
# UTSHUT = '2019-04-27T11:26:19.037' / UT shutter open
# DATE = '2019-04-27T11:36:40' / file creation date (YYYY-MM-DDThh:mm:ss UTC)
# NAMPSXY = '1 1 ' / number of amplifiers in y x
# CCDSUM = '1 1 ' / binning in x y
# ASEC1 = '[1:460,1:2835]' / amplifier section 1(LL)
# BSEC1 = '[411:460,1:2835]' / bias section 1(LL)
# CSEC1 = '[1:410,1:2835]' / ccd section 1(LL)
# DSEC1 = '[1:410,1:2835]' / data section 1(LL)
# TSEC1 = '[51:410,1:2835]' / trim section 1(LL)
# ROISEC = '[900:1259,565:3399]' / roi section
# DETID = 'CCD44-82_1' / detector ID
# DETNUM = '1 ' / Detector Number
# DETNAM = 'CCD44-82' / detector name
# FPA = 'DBSP_BLUE' / focal plan array
# UTC = '117 11:26:19.1' / <elapsed days> <time-obs>
# UT = '11:26:19.1' / time-obs
# OBSLST = '17:59:30.4' / lst-obs
# RA = '14:51:40.33' / Right Ascencion
# DEC = '+48:59:09.9' / Declination
# HOURANG = 'W03:07:09.9' / Hour angle, TCS format
# HA = '+03:07:09.9' / Hour angle
# AIRMASS = '1.265 ' / Airmass
# TELID = '200 ' / telescope ID
# TELFOCUS= '43.09 mm' / focus position
# CASSPA = '95.00 ' / cass ring angle
# PARALLAC= '96.34 ' / parallactic angle
# DHE = 'SDSU Gen III' / controller info
# CCDTEMP = '161.76 ' / detector mount temp
# SOFTVER = '3.4 ' / software version
# HDR_REV = '4.3 ' / gfits version
# GCOMMENT= ' ' / comment
# ANGLE = '27 deg 17 min' / Grating Angle
# GRATING = '600/4000' / //lines/mm & Blaze
# BIAS = 'bias_DBSP_BLUE_11.fits' / bias frame used
# OVERSCAN= -11 / additional overscan offset applied
# FLAT = 'flat_DBSP_BLUE_11_1.5_D55_600_4000.fits' / flatfield frame used
# FLATSECT= '[150:350]' / flatfield collapse section
# SIGCLIP = 15.0000 / LA Cosmic sigclip
# SIGFRAC = 0.0500000 / LA Cosmic sigfrac
# OBJLIM = 0.500000 / LA Cosmic objlim
# NITER = 4 / LA Cosmic niter
# NCOSMICS= 212 / number of cosmics found
# DATE-OBS= '2019-04-27' / UT date of observation (from UTSHUT keyword)
# MJD = 58600.4766091 / MJD corresponding to UTSHUT
# DISPLINE = 1480 / column/row along dispersion axis to find trace
# NDISP = 50 / number of columns/rows to sum to find and trace profile
# OPTIMALPROFILE = local / number of columns/rows to sum to find and trace profile
# WIDTH_LOCALPROFILE = 200 / width in pixels of local extraction profile
# X_GLOBPROF = [500,2000] / dispersion pixel range for global profile
# OBJ_APER = -7,7 / object extraction aperture
# SKY_APER = -59,-15,15,51 / sky extraction aperture
# ARCFILE1 = arc_DBSP_BLUE_11_0.5_D55_600_4000_FeAr.fits / arc file used
# END
# header info from red frame:
# SIMPLE = T / Written by IDL: Tue Apr 30 17:29:20 2019
# BITPIX = -32 / IEEE single precision floating point
# NAXIS = 2 / number of data axes
# NAXIS1 = 4107 /Number of positions along axis 1
# NAXIS2 = 401 /Number of positions along axis 2
# EXTEND = T / FITS dataset may contain extensions
# COMMENT FITS (Flexible Image Transport System) format defined in Astronomy and
# COMMENT Astrophysics Supplement Series v44/p363, v44/p371, v73/p359, v73/p365.
# COMMENT Contact the NASA Science Office of Standards and Technology for the
# COMMENT FITS Definition document #100 and other FITS information.
# BZERO = 0 / offset data range to that of unsigned short
# BSCALE = 1 / default scaling factor
# OBJECT = 'ZTF18aapaeye' / object title
# OBSERVER= 'Lin Yan ' / observer
# IMGTYPE = 'object ' / observation type
# GAIN = 2.8 / e-/adu
# RON = 8.5 / system noise e-
# DICHROIC= 'D55 ' / Dichroic
# APERTURE= '1.5 ' / aperture (arcsecs)
# TURRET = 'APERTURE' / turret position
# LAMPS = '0000000 ' / lamps: D-FeAr-Hg-Ar-Ne-He-InCand
# RFILTER = 'OPEN ' / filter wheel
# OEXPTIME= 600. / originaly req. exposure time
# EXPTIME = 600. / actual exposure time
# UTSHUT = '2019-04-27T11:25:53.951' / UT shutter open
# DATE = '2019-04-27T11:36:17' / file creation date (YYYY-MM-DDThh:mm:ss UTC)
# NAMPSXY = '1 1 ' / number of amplifiers in y x
# CCDSUM = '1 1 ' / binning in x y
# ASEC1 = '[1:4141,1:440]' / amplifier section 1(LL)
# BSEC1 = '[4122:4141,1:440]' / bias section 1(LL)
# CSEC1 = '[1:4121,1:440]' / ccd section 1(LL)
# DSEC1 = '[1:4121,1:440]' / data section 1(LL)
# TSEC1 = '[8:4121,1:440]' / trim section 1(LL)
# ROISEC = '[1:4114,785:1224]' / roi section
# DETID = 'LBNL_4Kx2K_1' / detector ID
# DETNUM = '1 ' / Detector Number
# DETNAM = 'LBNL_4Kx2K' / detector name
# FPA = 'DBSP_RED2' / focal plan array
# UTC = '117 11:25:54.0' / <elapsed days> <time-obs>
# UT = '11:25:54.0' / time-obs
# OBSLST = '17:59:05.3' / lst-obs
# RA = '14:51:40.33' / Right Ascencion
# DEC = '+48:59:09.9' / Declination
# HOURANG = 'W03:06:44.7' / Hour angle, TCS format
# HA = '+03:06:44.7' / Hour angle
# AIRMASS = '1.264 ' / Airmass
# TELID = '200 ' / telescope ID
# TELFOCUS= '43.09 mm' / focus position
# CASSPA = '95.00 ' / cass ring angle
# PARALLAC= '96.43 ' / parallactic angle
# DHE = 'SDSU Gen III' / controller info
# CCDTEMP = '129.992 ' / detector mount temp
# SOFTVER = '3.4 ' / software version
# HDR_REV = '4.3 ' / gfits version
# GCOMMENT= ' ' / comment
# ANGLE = '24 deg 38 min' / Grating Angle
# GRATING = '316/7500' / lines/mm & Blaze
# CRVAL1 = 48.519459
# CRVAL2 = 33.313332
# BIAS = 'bias_DBSP_RED2_11.fits' / bias frame used
# OVERSCAN= -2 / additional overscan offset applied
# FLAT = 'flat_DBSP_RED2_11_1.5_D55_316_7500.fits' / flatfield frame used
# FLATSECT= '[80:280]' / flatfield collapse section
# SIGCLIP = 10.0000 / LA Cosmic sigclip
# SIGFRAC = 0.0500000 / LA Cosmic sigfrac
# OBJLIM = 0.500000 / LA Cosmic objlim
# NITER = 4 / LA Cosmic niter
# NCOSMICS= 3698 / number of cosmics found
# DATE-OBS= '2019-04-27' / UT date of observation (from UTSHUT keyword)
# MJD = 58600.4763189 / MJD corresponding to UTSHUT
# DISPLINE = 1350 / column/row along dispersion axis to find trace
# NDISP = 50 / number of columns/rows to sum to find and trace profile
# OPTIMALPROFILE = local / number of columns/rows to sum to find and trace profile
# WIDTH_LOCALPROFILE = 200 / width in pixels of local extraction profile
# X_GLOBPROF = [500,4000] / dispersion pixel range for global profile
# OBJ_APER = -7,7 / object extraction aperture
# SKY_APER = -51,-17,15,45 / sky extraction aperture
# ARCFILE1 = arc_DBSP_RED2_11_0.5_D55_316_7500_ArNeHe.fits / arc file used
# END
# wave_air           flux            err
# (A)  (erg/s/cm2/A)  (erg/s/cm2/A)
3100.226 5.445e-16 3.384e-16
3101.268 1.294e-16 3.221e-16
3102.311 -1.029e-16 3.416e-16
3103.353 1.65e-16 3.033e-16
3104.396 3.761e-16 2.938e-16
3105.439 -2.631e-16 3.019e-16
3106.482 -3.382e-16 3.242e-16
3107.524 5.657e-17 2.809e-16
3108.567 3.548e-16 2.725e-16
3109.611 3.426e-16 3.158e-16
3110.654 6.768e-16 2.552e-16
3111.696 5.199e-16 2.99e-16
3112.74 -1.115e-16 2.718e-16
3113.783 2.224e-16 2.476e-16
3114.827 -2.973e-16 2.701e-16
3115.869 8.32e-16 2.854e-16
3116.913 -6.431e-17 2.51e-16
3117.957 -4.289e-17 2.384e-16
3119.001 -3.088e-17 2.47e-16
3120.044 -3.688e-16 2.517e-16
3121.087 2.663e-16 2.148e-16
3122.132 1.918e-16 2.305e-16
3123.175 3.286e-16 2.186e-16
3124.219 5.94e-16 2.588e-16
3125.263 -1.387e-16 2.221e-16
3126.307 1.52e-16 2.013e-16
3127.351 2.722e-16 2.007e-16
3128.395 2.642e-16 1.924e-16
3129.439 -1.432e-16 2.086e-16
3130.484 4.571e-16 2.091e-16
3131.528 -5.195e-16 2.365e-16
3132.572 3.875e-16 1.965e-16
3133.617 -2.345e-16 1.97e-16
3134.662 -7.339e-17 1.871e-16
3135.706 1.07e-16 1.966e-16
3136.751 -2.107e-16 1.943e-16
3137.796 -2.825e-17 1.744e-16
3138.841 -7.88e-18 1.593e-16
3139.885 -3e-16 1.833e-16
3140.93 -2.68e-16 1.763e-16
3141.975 2.633e-16 1.648e-16
3143.019 2.984e-16 1.646e-16
3144.065 -4.275e-17 1.536e-16
3145.11 2.58e-16 1.523e-16
3146.156 -7.333e-17 1.606e-16
3147.2 1.422e-17 1.381e-16
3148.246 -9.649e-17 1.548e-16
3149.292 3.646e-16 1.597e-16
3150.337 -6.05e-18 1.39e-16
3151.382 1.413e-16 1.409e-16
3152.428 -6.026e-17 1.293e-16
3153.474 3.98e-16 1.623e-16
3154.52 3.907e-17 1.295e-16
3155.565 4.693e-17 1.299e-16
3156.611 2.058e-16 1.363e-16
3157.657 -1.402e-16 1.435e-16
3158.704 1.49e-16 1.312e-16
3159.749 -2.649e-16 1.568e-16
3160.795 9.926e-17 1.221e-16
3161.842 -1.546e-16 1.362e-16
3162.887 1.707e-16 1.303e-16
3163.934 1.08e-16 1.254e-16
3164.98 -3.736e-17 1.134e-16
3166.027 1.752e-16 1.271e-16
3167.073 -2.398e-16 1.293e-16
3168.12 -1.279e-17 1.07e-16
3169.167 1.857e-16 1.16e-16
3170.213 1.521e-16 1.137e-16
3171.259 1.261e-16 1.122e-16
3172.307 -3.06e-17 1.014e-16
3173.354 2.654e-16 1.275e-16
3174.401 4.475e-16 1.306e-16
3175.447 -2.308e-16 1.125e-16
3176.494 2.005e-17 9.822e-17
3177.542 -9.038e-17 1.01e-16
3178.589 -3.081e-17 9.015e-17
3179.636 -7.454e-18 9.623e-17
3180.683 -3.236e-18 8.956e-17
3181.731 -1.25e-18 8.531e-17
3182.778 7.371e-17 9.145e-17
3183.825 9.66e-17 8.985e-17
3184.873 8.149e-17 9.638e-17
3185.921 2.111e-16 1.028e-16
3186.968 1.02e-16 9.693e-17
3188.016 2.189e-16 1.01e-16
3189.064 -6.163e-17 1.049e-16
3190.112 3.071e-16 1.143e-16
3191.159 1.184e-16 1.088e-16
3192.208 1.229e-16 1.101e-16
3193.256 2.343e-16 1.253e-16
3194.304 2.547e-16 1.238e-16
3195.352 4.963e-17 1.116e-16
3196.4 1.106e-16 1.121e-16
3197.449 1.867e-16 1.164e-16
3198.496 7.558e-17 1.404e-16
3199.545 2.317e-16 1.25e-16
3200.594 -5.999e-17 1.011e-16
3201.642 -7.71e-17 9.928e-17
3202.69 3.215e-16 1.195e-16
3203.739 5.784e-17 1.028e-16
3204.788 -4.228e-17 9.302e-17
3205.837 1.103e-16 9.944e-17
3206.885 -5.61e-17 9.074e-17
3207.934 2.152e-16 9.875e-17
3208.984 -4.992e-17 8.189e-17
3210.033 -5.639e-18 8.64e-17
3211.081 -6.672e-17 7.957e-17
3212.131 2.348e-16 1.025e-16
3213.18 9.99e-17 8.535e-17
3214.23 6.25e-17 9.157e-17
3215.278 1.895e-16 1.034e-16
3216.328 -9.024e-17 7.356e-17
3217.378 2.476e-16 9.843e-17
3218.426 4.243e-17 7.918e-17
3219.476 1.108e-16 8.804e-17
3220.526 -6.146e-17 7.366e-17
3221.576 1.101e-16 9.713e-17
3222.625 1.068e-17 7.752e-17
3223.675 -8.239e-17 8.043e-17
3224.725 7.49e-17 8.482e-17
3225.775 2.158e-16 9.35e-17
3226.825 1.376e-16 8.609e-17
3227.875 1.859e-16 8.764e-17
3228.925 5.744e-17 8.191e-17
3229.976 1.264e-16 8.184e-17
3231.025 2.235e-16 8.918e-17
3232.076 -1.641e-17 7.071e-17
3233.126 -1.289e-17 7.299e-17
3234.176 1.553e-16 8.009e-17
3235.227 4.013e-17 7.56e-17
3236.277 -5.509e-17 6.455e-17
3237.328 1.267e-16 8.451e-17
3238.378 1.226e-16 7.591e-17
3239.429 -2.923e-18 6.828e-17
3240.48 -4.807e-19 6.554e-17
3241.531 6.452e-17 7.864e-17
3242.581 -3.42e-17 6.614e-17
3243.633 1.719e-16 8.344e-17
3244.684 1.013e-16 7.913e-17
3245.735 1.575e-16 7.916e-17
3246.786 2.187e-16 8.505e-17
3247.837 -2.715e-17 6.882e-17
3248.888 1.417e-16 8.491e-17
3249.939 -1.588e-17 7.602e-17
3250.991 8.287e-17 8.032e-17
3252.042 1.22e-16 8.642e-17
3253.094 3.752e-17 7.259e-17
3254.145 1.356e-16 8.281e-17
3255.197 9.27e-17 8.501e-17
3256.249 1.315e-16 7.397e-17
3257.301 1.236e-16 7.319e-17
3258.352 7.756e-17 7.413e-17
3259.404 3.277e-16 8.598e-17
3260.456 4.522e-17 7.636e-17
3261.508 1.362e-17 6.689e-17
3262.559 7.444e-17 6.992e-17
3263.612 1.576e-16 7.479e-17
3264.664 4.419e-17 6.84e-17
3265.715 1.087e-16 7.421e-17
3266.768 1.094e-16 6.797e-17
3267.82 -1.376e-16 5.378e-17
3268.873 1.912e-16 7.713e-17
3269.925 1.203e-16 6.778e-17
3270.977 8.878e-17 7.06e-17
3272.03 -2.431e-17 5.081e-17
3273.083 1.936e-17 5.726e-17
3274.135 1.266e-16 6.552e-17
3275.188 -1.938e-17 5.132e-17
3276.241 7.204e-17 5.924e-17
3277.294 -8.831e-18 4.924e-17
3278.346 1.231e-16 5.567e-17
3279.399 2.756e-17 5.461e-17
3280.452 2.59e-16 6.573e-17
3281.505 7.701e-17 5.641e-17
3282.558 1.034e-16 5.613e-17
3283.612 9.203e-17 5.462e-17
3284.665 1.639e-16 5.981e-17
3285.718 1.388e-16 6.01e-17
3286.771 9.87e-17 5.404e-17
3287.825 -7.35e-17 4.237e-17
3288.878 2.077e-16 6.034e-17
3289.931 5.578e-17 5.232e-17
3290.985 1.883e-16 5.95e-17
3292.039 1.286e-16 6.161e-17
3293.093 1.581e-16 6.013e-17
3294.146 1.312e-16 5.807e-17
3295.2 1.351e-16 7e-17
3296.254 6.818e-17 5.461e-17
3297.307 1.891e-16 6.181e-17
3298.361 5.075e-17 5.58e-17
3299.416 1.574e-16 6.475e-17
3300.47 1.32e-16 6.089e-17
3301.523 1.831e-16 6.349e-17
3302.578 1.61e-16 6.241e-17
3303.632 -5.259e-17 5.49e-17
3304.687 2.018e-16 6.743e-17
3305.74 2.483e-16 6.54e-17
3306.795 1.395e-16 6.329e-17
3307.85 2.094e-16 6.306e-17
3308.904 3.028e-18 5.16e-17
3309.958 1.067e-16 5.465e-17
3311.013 4.577e-17 5.65e-17
3312.068 -1.072e-17 5.22e-17
3313.122 1.987e-16 6.43e-17
3314.177 1.463e-16 6.113e-17
3315.232 8.166e-17 5.718e-17
3316.288 7.834e-17 5.394e-17
3317.342 -4.166e-17 4.965e-17
3318.397 9.23e-17 5.804e-17
3319.453 6.031e-17 5.599e-17
3320.508 7.843e-17 5.624e-17
3321.562 2.132e-16 6.26e-17
3322.618 7.916e-17 4.966e-17
3323.673 3.964e-17 5.185e-17
3324.728 1.009e-16 4.715e-17
3325.784 1.495e-16 5.584e-17
3326.839 3.205e-17 4.375e-17
3327.895 8.441e-17 4.85e-17
3328.95 5.432e-17 4.438e-17
3330.006 7.132e-17 4.526e-17
3331.062 7.094e-17 4.338e-17
3332.118 6.53e-17 4.251e-17
3333.173 5.018e-17 4.016e-17
3334.229 1.396e-16 4.547e-17
3335.285 8.7e-17 4.165e-17
3336.341 5.109e-17 3.929e-17
3337.397 3.253e-17 3.815e-17
3338.453 1.131e-16 4.229e-17
3339.51 1.65e-16 4.487e-17
3340.565 4.018e-17 4.523e-17
3341.622 5.191e-17 3.652e-17
3342.678 1.181e-16 4.219e-17
3343.735 1.952e-17 3.616e-17
3344.79 1.152e-16 4.595e-17
3345.847 7.954e-17 4.505e-17
3346.904 9.83e-17 4.234e-17
3347.961 5.979e-17 4.275e-17
3349.017 5.761e-17 4.326e-17
3350.074 4.869e-17 3.831e-17
3351.131 9.86e-17 4.384e-17
3352.187 1.697e-16 4.769e-17
3353.244 -2.799e-17 3.359e-17
3354.301 7.797e-17 4.037e-17
3355.358 1.191e-17 3.734e-17
3356.414 8.625e-17 4.213e-17
3357.472 1.504e-16 4.927e-17
3358.529 6.854e-17 4.413e-17
3359.587 5.983e-17 4.139e-17
3360.643 2.388e-17 3.859e-17
3361.701 8.657e-17 4.008e-17
3362.758 6.446e-17 4.104e-17
3363.815 9.778e-17 4.465e-17
3364.873 7.883e-17 4.494e-17
3365.93 1.328e-16 4.208e-17
3366.988 1.45e-16 5.364e-17
3368.045 9.369e-17 4.56e-17
3369.103 7.26e-17 4.396e-17
3370.161 1.646e-16 5.116e-17
3371.219 9.776e-17 4.951e-17
3372.276 1.253e-16 5.003e-17
3373.334 1.054e-16 4.845e-17
3374.392 1.073e-16 4.648e-17
3375.451 1.176e-16 4.946e-17
3376.508 5.144e-17 4.375e-17
3377.566 1.189e-16 5.186e-17
3378.625 7.154e-17 4.382e-17
3379.682 1.138e-16 4.588e-17
3380.741 1.15e-16 4.64e-17
3381.799 1.176e-16 4.818e-17
3382.858 1.478e-16 4.543e-17
3383.916 1.013e-16 4.459e-17
3384.974 1.566e-16 4.372e-17
3386.033 7.663e-17 4.222e-17
3387.092 1.105e-16 4.186e-17
3388.15 1.426e-16 4.407e-17
3389.209 2.383e-17 3.939e-17
3390.268 4.548e-17 3.76e-17
3391.326 5.713e-17 3.739e-17
3392.385 8.446e-17 3.767e-17
3393.444 1.103e-16 3.637e-17
3394.503 1.579e-17 3.611e-17
3395.561 5.541e-17 3.387e-17
3396.621 1.511e-16 4.383e-17
3397.68 1.059e-16 3.828e-17
3398.74 1.406e-16 4.071e-17
3399.798 8.736e-17 3.314e-17
3400.858 7.344e-18 3.105e-17
3401.917 9.798e-17 3.72e-17
3402.976 2.127e-17 3.161e-17
3404.035 1.026e-16 3.9e-17
3405.095 1.227e-16 3.712e-17
3406.155 1.261e-16 3.494e-17
3407.214 8.758e-17 3.331e-17
3408.274 7.049e-17 3.233e-17
3409.334 4.227e-17 2.915e-17
3410.394 9.633e-17 3.402e-17
3411.453 2.907e-17 3.094e-17
3412.513 1.194e-16 3.648e-17
3413.573 1.088e-16 3.787e-17
3414.632 5.921e-17 3.322e-17
3415.692 7.7e-17 3.666e-17
3416.753 6.619e-17 3.289e-17
3417.813 5.061e-17 3.069e-17
3418.872 4.627e-17 3.406e-17
3419.933 1.09e-16 3.82e-17
3420.993 1.434e-16 4.077e-17
3422.054 6.413e-17 3.262e-17
3423.113 5.198e-17 3.177e-17
3424.174 5.465e-17 3.275e-17
3425.235 1.219e-16 3.514e-17
3426.296 8.407e-17 3.601e-17
3427.355 1.329e-16 3.703e-17
3428.416 1.135e-16 3.774e-17
3429.477 8.896e-17 3.617e-17
3430.537 6.048e-17 3.358e-17
3431.598 6.929e-17 3.421e-17
3432.659 1.693e-16 4.187e-17
3433.72 9.692e-17 3.602e-17
3434.781 7.266e-17 3.85e-17
3435.842 1.477e-18 3.293e-17
3436.903 8.975e-17 3.863e-17
3437.964 1.282e-16 3.985e-17
3439.025 7.07e-17 3.663e-17
3440.086 7.335e-17 3.552e-17
3441.148 4.376e-17 3.44e-17
3442.208 1.262e-16 3.674e-17
3443.27 4.762e-17 3.537e-17
3444.331 8.2e-17 3.925e-17
3445.393 7.144e-17 3.677e-17
3446.454 9.456e-17 3.961e-17
3447.516 1.19e-16 4.145e-17
3448.577 3.847e-17 3.421e-17
3449.639 1.806e-16 4.305e-17
3450.7 1.271e-16 3.795e-17
3451.762 1.52e-16 4.203e-17
3452.824 4.64e-17 3.738e-17
3453.885 1.169e-16 3.642e-17
3454.948 1.424e-16 3.726e-17
3456.01 1.277e-16 3.829e-17
3457.072 1.388e-16 3.845e-17
3458.133 1.114e-16 3.73e-17
3459.196 8.133e-17 3.366e-17
3460.258 1.054e-16 3.467e-17
3461.32 1.26e-16 3.234e-17
3462.382 1.246e-16 3.343e-17
3463.444 1.107e-16 3.304e-17
3464.507 8.662e-17 3.372e-17
3465.569 1.428e-16 3.121e-17
3466.631 1.353e-16 3.411e-17
3467.694 1.211e-16 3.213e-17
3468.757 7.361e-17 2.944e-17
3469.819 7.204e-17 2.922e-17
3470.882 9.886e-17 3.014e-17
3471.945 1.259e-16 3.195e-17
3473.008 6.563e-17 2.811e-17
3474.07 1.061e-16 2.986e-17
3475.133 8.181e-17 3.028e-17
3476.196 7.492e-17 2.809e-17
3477.258 7.996e-17 2.772e-17
3478.321 4.384e-17 2.783e-17
3479.384 4.158e-17 2.811e-17
3480.448 8.682e-17 3.229e-17
3481.51 1.724e-16 3.648e-17
3482.574 7.582e-17 3.372e-17
3483.637 7.748e-17 3.215e-17
3484.701 8.766e-17 3.178e-17
3485.763 1.057e-16 3.435e-17
3486.827 1.753e-16 3.708e-17
3487.89 7.342e-17 3.264e-17
3488.953 7.724e-17 3.115e-17
3490.017 6.485e-17 2.993e-17
3491.081 5.965e-17 2.77e-17
3492.145 4.809e-17 3.08e-17
3493.208 1.433e-16 3.274e-17
3494.271 8.397e-17 2.871e-17
3495.336 9.647e-17 3.095e-17
3496.4 1.326e-16 3.394e-17
3497.463 5.068e-17 2.817e-17
3498.527 6e-17 3.099e-17
3499.591 1.572e-16 3.243e-17
3500.654 -3.111e-18 2.596e-17
3501.719 7.391e-17 3.04e-17
3502.783 1.182e-16 3.172e-17
3503.847 1.311e-16 3.217e-17
3504.911 1.001e-16 3.047e-17
3505.975 1.516e-16 3.206e-17
3507.04 1.299e-16 3.188e-17
3508.104 1.211e-16 3.081e-17
3509.168 1.17e-16 3.213e-17
3510.233 1.253e-16 2.956e-17
3511.297 7.067e-17 2.668e-17
3512.361 1.122e-16 2.773e-17
3513.426 9.234e-17 2.687e-17
3514.491 1.478e-16 3.145e-17
3515.556 1.324e-16 2.956e-17
3516.62 1.672e-16 3.006e-17
3517.685 1.979e-16 3.189e-17
3518.75 8.747e-17 2.751e-17
3519.815 1.321e-16 2.859e-17
3520.879 1.212e-16 2.787e-17
3521.944 1.9e-16 3.02e-17
3523.01 1.2e-16 2.823e-17
3524.074 1.124e-16 2.615e-17
3525.139 1.116e-16 2.434e-17
3526.205 1.155e-16 2.612e-17
3527.27 1.058e-16 2.437e-17
3528.335 1.085e-16 2.53e-17
3529.4 7.659e-17 2.441e-17
3530.466 1.779e-16 2.699e-17
3531.531 1.266e-16 2.595e-17
3532.596 1.009e-16 2.499e-17
3533.662 8.045e-17 2.311e-17
3534.728 1.245e-16 2.528e-17
3535.792 1.524e-16 2.55e-17
3536.858 1.315e-16 2.603e-17
3537.924 1.504e-16 2.651e-17
3538.99 1.14e-16 2.482e-17
3540.055 1.706e-16 2.996e-17
3541.121 7.1e-17 2.63e-17
3542.187 1.765e-16 3.059e-17
3543.252 1.621e-16 2.963e-17
3544.319 9.527e-17 2.841e-17
3545.385 1.527e-16 3.045e-17
3546.451 1.149e-16 2.832e-17
3547.516 1.275e-16 2.992e-17
3548.583 7.948e-17 2.748e-17
3549.649 1.106e-16 2.919e-17
3550.716 1.138e-16 2.906e-17
3551.781 9.086e-17 2.765e-17
3552.848 1.103e-16 2.955e-17
3553.914 1.673e-16 2.98e-17
3554.98 9.692e-17 2.913e-17
3556.047 9.343e-17 2.987e-17
3557.114 1.019e-16 2.761e-17
3558.18 1.62e-16 3.113e-17
3559.246 1.497e-16 2.991e-17
3560.313 1.738e-16 3.019e-17
3561.38 1.386e-16 3.12e-17
3562.447 1.621e-16 3.103e-17
3563.513 1.45e-16 3.167e-17
3564.58 1.241e-16 2.944e-17
3565.647 8.464e-17 2.561e-17
3566.713 1.024e-16 2.95e-17
3567.781 1.03e-16 2.691e-17
3568.848 9.529e-17 2.569e-17
3569.915 1.294e-16 2.742e-17
3570.981 9.475e-17 2.512e-17
3572.049 1.071e-16 2.543e-17
3573.116 1.366e-16 2.723e-17
3574.184 7.067e-17 2.354e-17
3575.25 1.549e-16 2.792e-17
3576.318 1.153e-16 2.787e-17
3577.385 1.129e-16 2.646e-17
3578.452 7.653e-17 2.397e-17
3579.52 1.597e-16 2.665e-17
3580.587 1.767e-16 2.848e-17
3581.655 1.158e-16 2.394e-17
3582.722 1.437e-16 2.595e-17
3583.79 1.082e-16 2.249e-17
3584.858 1.281e-16 2.378e-17
3585.925 8.472e-17 2.13e-17
3586.993 9.706e-17 2.211e-17
3588.061 1.151e-16 2.446e-17
3589.129 6.638e-17 2.153e-17
3590.196 1.184e-16 2.456e-17
3591.264 1.372e-16 2.464e-17
3592.333 1.109e-16 2.354e-17
3593.401 1.727e-16 2.573e-17
3594.468 7.798e-17 2.295e-17
3595.537 6.688e-17 2.34e-17
3596.605 1.495e-16 2.465e-17
3597.672 1.215e-16 2.351e-17
3598.741 1.461e-16 2.407e-17
3599.809 1.092e-16 2.461e-17
3600.878 9.906e-17 2.389e-17
3601.946 1.064e-16 2.306e-17
3603.014 1.592e-16 2.519e-17
3604.083 1.409e-16 2.246e-17
3605.152 1.097e-16 2.168e-17
3606.22 1.403e-16 2.424e-17
3607.288 1.536e-16 2.241e-17
3608.357 1.463e-16 2.251e-17
3609.425 1.368e-16 2.197e-17
3610.494 1.093e-16 2.23e-17
3611.563 9.506e-17 1.979e-17
3612.632 1.052e-16 2.21e-17
3613.7 1.147e-16 2.257e-17
3614.77 1.26e-16 2.217e-17
3615.839 1.052e-16 2.152e-17
3616.908 1.26e-16 2.311e-17
3617.976 7.7e-17 2.086e-17
3619.046 1.23e-16 2.13e-17
3620.115 1.106e-16 2.288e-17
3621.183 1.297e-16 2.294e-17
3622.253 1.2e-16 2.329e-17
3623.322 1.177e-16 2.302e-17
3624.392 1.393e-16 2.563e-17
3625.461 1.209e-16 2.401e-17
3626.53 1.009e-16 2.337e-17
3627.6 1.286e-16 2.567e-17
3628.669 8.819e-17 2.493e-17
3629.738 1.397e-16 2.607e-17
3630.808 1.262e-16 2.615e-17
3631.878 1.301e-16 2.54e-17
3632.947 1.54e-16 2.524e-17
3634.017 1.311e-16 2.613e-17
3635.087 9.854e-17 2.282e-17
3636.157 9.568e-17 2.389e-17
3637.226 1.267e-16 2.477e-17
3638.296 8.156e-17 2.24e-17
3639.366 1.569e-16 2.53e-17
3640.435 1.152e-16 2.497e-17
3641.505 1.163e-16 2.616e-17
3642.576 9.05e-17 2.445e-17
3643.646 6.371e-17 2.206e-17
3644.715 1.279e-16 2.565e-17
3645.786 1.346e-16 2.434e-17
3646.856 1.025e-16 2.384e-17
3647.926 1.166e-16 2.392e-17
3648.996 7.055e-17 2.428e-17
3650.067 1.409e-16 2.612e-17
3651.137 1.225e-16 2.637e-17
3652.207 1.258e-16 2.66e-17
3653.278 1.221e-16 2.565e-17
3654.348 1.458e-16 2.594e-17
3655.419 1.522e-16 2.686e-17
3656.489 1.009e-16 2.423e-17
3657.56 8.941e-17 2.443e-17
3658.631 1.119e-16 2.43e-17
3659.701 1.747e-16 2.641e-17
3660.772 1.089e-16 2.483e-17
3661.843 1.395e-16 2.506e-17
3662.914 1.415e-16 2.556e-17
3663.984 1.156e-16 2.389e-17
3665.055 1.281e-16 2.421e-17
3666.126 9.919e-17 2.222e-17
3667.197 1.31e-16 2.212e-17
3668.268 7.887e-17 2.175e-17
3669.339 1.143e-16 2.18e-17
3670.41 1.153e-16 2.131e-17
3671.481 1.229e-16 2.205e-17
3672.552 1.353e-16 2.112e-17
3673.624 9.239e-17 2.006e-17
3674.695 1.386e-16 2.17e-17
3675.766 1.389e-16 2.18e-17
3676.837 1.229e-16 2.108e-17
3677.909 8.901e-17 2.009e-17
3678.98 1.221e-16 2.166e-17
3680.051 1.27e-16 2.144e-17
3681.123 1.422e-16 2.089e-17
3682.195 1.513e-16 2.105e-17
3683.266 1.256e-16 2.089e-17
3684.338 1.176e-16 2.017e-17
3685.41 1.334e-16 2.06e-17
3686.482 1.173e-16 2.04e-17
3687.553 1.275e-16 1.954e-17
3688.625 1.234e-16 1.988e-17
3689.697 1.437e-16 2.092e-17
3690.768 9.923e-17 1.948e-17
3691.84 1.353e-16 2.023e-17
3692.912 1.394e-16 2.16e-17
3693.984 1.261e-16 2.114e-17
3695.056 1.079e-16 2.031e-17
3696.128 9.07e-17 1.978e-17
3697.2 8.815e-17 2.101e-17
3698.272 1.255e-16 2.145e-17
3699.344 1.677e-16 2.226e-17
3700.417 9.693e-17 2.191e-17
3701.489 1.321e-16 2.323e-17
3702.561 1.334e-16 2.26e-17
3703.633 1.215e-16 2.164e-17
3704.706 9.874e-17 1.957e-17
3705.779 1.032e-16 2.111e-17
3706.85 1.427e-16 2.189e-17
3707.923 1.356e-16 2.154e-17
3708.996 9.155e-17 1.906e-17
3710.068 1.626e-16 2.283e-17
3711.141 1.088e-16 2.077e-17
3712.214 1.235e-16 2.248e-17
3713.287 1.199e-16 2.237e-17
3714.359 9.907e-17 2.14e-17
3715.432 1.331e-16 2.339e-17
3716.505 1.535e-16 2.231e-17
3717.577 1.184e-16 2.17e-17
3718.65 1.008e-16 2.085e-17
3719.723 1.159e-16 2.095e-17
3720.796 1.048e-16 2.078e-17
3721.869 1.628e-16 2.229e-17
3722.942 1.01e-16 1.966e-17
3724.015 1.259e-16 2.242e-17
3725.089 1.326e-16 2.328e-17
3726.161 1.246e-16 2.271e-17
3727.235 1.566e-16 2.284e-17
3728.308 1.071e-16 2.248e-17
3729.381 1.248e-16 2.246e-17
3730.454 1.107e-16 2.15e-17
3731.528 1.117e-16 2.133e-17
3732.601 1.425e-16 2.237e-17
3733.674 1.223e-16 2.132e-17
3734.748 1.433e-16 2.093e-17
3735.822 9.46e-17 1.943e-17
3736.894 1.408e-16 2.159e-17
3737.968 1.19e-16 2.147e-17
3739.042 1.424e-16 2.227e-17
3740.116 1.28e-16 2.082e-17
3741.189 1.586e-16 2.437e-17
3742.263 1.28e-16 2.208e-17
3743.337 1.242e-16 2.018e-17
3744.411 1.835e-16 2.295e-17
3745.484 9.212e-17 1.904e-17
3746.558 1.345e-16 2.024e-17
3747.633 1.238e-16 2.064e-17
3748.706 1.856e-16 2.195e-17
3749.78 9.333e-17 1.863e-17
3750.854 1.362e-16 2.009e-17
3751.929 1.192e-16 2.027e-17
3753.002 1.203e-16 2.023e-17
3754.076 9.473e-17 1.968e-17
3755.151 7.237e-17 1.934e-17
3756.224 1.094e-16 1.973e-17
3757.299 1.104e-16 1.938e-17
3758.374 1.473e-16 2.073e-17
3759.448 1.357e-16 1.956e-17
3760.522 1.454e-16 1.968e-17
3761.596 1.109e-16 1.86e-17
3762.671 1.225e-16 1.95e-17
3763.745 1.006e-16 1.886e-17
3764.82 1.019e-16 1.944e-17
3765.895 1.015e-16 1.833e-17
3766.969 1.526e-16 1.934e-17
3768.043 1.036e-16 1.803e-17
3769.118 9.313e-17 1.741e-17
3770.193 1.408e-16 1.873e-17
3771.268 1.284e-16 1.799e-17
3772.342 1.408e-16 1.925e-17
3773.417 1.205e-16 1.992e-17
3774.492 1.498e-16 2.047e-17
3775.567 1.475e-16 2.055e-17
3776.642 1.847e-16 2.097e-17
3777.717 1.382e-16 1.936e-17
3778.792 1.253e-16 1.917e-17
3779.867 1.414e-16 2.001e-17
3780.942 1.317e-16 2.006e-17
3782.017 1.488e-16 2.009e-17
3783.092 1.015e-16 1.822e-17
3784.167 1.146e-16 1.964e-17
3785.243 1.241e-16 1.964e-17
3786.318 1.362e-16 1.869e-17
3787.393 1.511e-16 1.946e-17
3788.468 1.839e-16 2.021e-17
3789.544 1.444e-16 1.894e-17
3790.62 1.636e-16 1.987e-17
3791.694 1.403e-16 1.92e-17
3792.77 1.329e-16 1.876e-17
3793.846 1.517e-16 1.956e-17
3794.921 9.982e-17 1.768e-17
3795.996 1.447e-16 1.838e-17
3797.072 1.152e-16 1.721e-17
3798.148 1.266e-16 1.757e-17
3799.223 1.392e-16 1.779e-17
3800.299 1.071e-16 1.704e-17
3801.375 1.416e-16 1.842e-17
3802.45 1.806e-16 1.978e-17
3803.526 1.306e-16 1.834e-17
3804.602 1.062e-16 1.794e-17
3805.679 1.516e-16 1.88e-17
3806.754 1.258e-16 1.888e-17
3807.83 1.616e-16 1.935e-17
3808.906 1.79e-16 2.07e-17
3809.982 1.335e-16 1.92e-17
3811.058 1.688e-16 2.027e-17
3812.134 1.946e-16 2.069e-17
3813.211 1.542e-16 1.883e-17
3814.286 1.188e-16 1.785e-17
3815.363 1.379e-16 1.791e-17
3816.439 1.444e-16 1.826e-17
3817.516 1.775e-16 1.916e-17
3818.591 1.131e-16 1.708e-17
3819.668 1.467e-16 1.761e-17
3820.745 1.479e-16 1.788e-17
3821.82 1.511e-16 1.821e-17
3822.897 1.649e-16 1.847e-17
3823.974 1.621e-16 1.864e-17
3825.051 1.347e-16 1.797e-17
3826.126 1.572e-16 1.773e-17
3827.203 1.375e-16 1.651e-17
3828.28 1.134e-16 1.669e-17
3829.356 1.258e-16 1.713e-17
3830.433 1.062e-16 1.694e-17
3831.51 8.065e-17 1.62e-17
3832.587 1.223e-16 1.747e-17
3833.663 1.446e-16 1.804e-17
3834.74 1.401e-16 1.78e-17
3835.817 1.227e-16 1.691e-17
3836.893 1.714e-16 1.871e-17
3837.971 1.023e-16 1.64e-17
3839.048 1.237e-16 1.705e-17
3840.125 1.487e-16 1.798e-17
3841.201 1.794e-16 1.824e-17
3842.279 1.436e-16 1.848e-17
3843.356 1.52e-16 1.856e-17
3844.434 1.523e-16 1.926e-17
3845.51 1.375e-16 1.822e-17
3846.588 1.548e-16 1.909e-17
3847.665 1.551e-16 1.885e-17
3848.742 1.28e-16 1.798e-17
3849.819 1.214e-16 1.74e-17
3850.897 1.53e-16 1.859e-17
3851.974 1.065e-16 1.709e-17
3853.051 1.45e-16 1.785e-17
3854.129 1.475e-16 1.786e-17
3855.206 1.641e-16 1.883e-17
3856.283 1.363e-16 1.704e-17
3857.361 1.256e-16 1.672e-17
3858.439 1.485e-16 1.766e-17
3859.517 1.26e-16 1.632e-17
3860.594 1.207e-16 1.584e-17
3861.672 1.034e-16 1.565e-17
3862.75 1.153e-16 1.713e-17
3863.827 1.481e-16 1.856e-17
3864.905 1.493e-16 1.846e-17
3865.983 1.168e-16 1.663e-17
3867.061 1.457e-16 1.742e-17
3868.138 1.427e-16 1.775e-17
3869.216 1.165e-16 1.636e-17
3870.294 1.479e-16 1.752e-17
3871.373 1.36e-16 1.637e-17
3872.45 1.268e-16 1.642e-17
3873.528 1.474e-16 1.714e-17
3874.606 1.484e-16 1.756e-17
3875.684 1.458e-16 1.718e-17
3876.762 1.328e-16 1.771e-17
3877.841 1.209e-16 1.57e-17
3878.919 1.284e-16 1.584e-17
3879.997 1.696e-16 1.731e-17
3881.075 1.302e-16 1.559e-17
3882.154 1.679e-16 1.725e-17
3883.231 1.256e-16 1.592e-17
3884.31 1.621e-16 1.714e-17
3885.389 1.223e-16 1.54e-17
3886.467 1.479e-16 1.649e-17
3887.545 1.467e-16 1.638e-17
3888.624 1.497e-16 1.643e-17
3889.702 1.024e-16 1.553e-17
3890.78 1.578e-16 1.714e-17
3891.859 1.864e-16 1.765e-17
3892.938 1.57e-16 1.702e-17
3894.017 1.088e-16 1.557e-17
3895.095 1.382e-16 1.666e-17
3896.174 1.177e-16 1.595e-17
3897.253 1.538e-16 1.691e-17
3898.332 1.365e-16 1.632e-17
3899.41 1.541e-16 1.65e-17
3900.489 1.413e-16 1.639e-17
3901.568 1.779e-16 1.729e-17
3902.646 1.798e-16 1.743e-17
3903.725 1.25e-16 1.605e-17
3904.805 1.308e-16 1.598e-17
3905.884 1.626e-16 1.705e-17
3906.962 1.44e-16 1.617e-17
3908.042 1.429e-16 1.718e-17
3909.121 9.836e-17 1.57e-17
3910.199 1.462e-16 1.732e-17
3911.279 1.499e-16 1.76e-17
3912.358 1.349e-16 1.722e-17
3913.438 1.481e-16 1.812e-17
3914.516 1.299e-16 1.73e-17
3915.596 1.486e-16 1.739e-17
3916.675 1.489e-16 1.652e-17
3917.754 1.385e-16 1.699e-17
3918.833 1.151e-16 1.583e-17
3919.913 1.396e-16 1.654e-17
3920.993 1.282e-16 1.588e-17
3922.071 1.289e-16 1.559e-17
3923.151 1.327e-16 1.529e-17
3924.231 1.339e-16 1.597e-17
3925.31 1.252e-16 1.501e-17
3926.39 1.442e-16 1.557e-17
3927.469 1.434e-16 1.512e-17
3928.549 1.32e-16 1.434e-17
3929.628 1.276e-16 1.443e-17
3930.708 1.525e-16 1.485e-17
3931.788 1.242e-16 1.4e-17
3932.868 1.231e-16 1.343e-17
3933.947 1.254e-16 1.336e-17
3935.027 1.279e-16 1.357e-17
3936.107 1.215e-16 1.383e-17
3937.187 1.334e-16 1.371e-17
3938.267 1.568e-16 1.517e-17
3939.347 1.233e-16 1.426e-17
3940.427 1.529e-16 1.567e-17
3941.506 1.247e-16 1.52e-17
3942.587 1.594e-16 1.635e-17
3943.667 1.409e-16 1.587e-17
3944.746 1.769e-16 1.739e-17
3945.827 1.379e-16 1.6e-17
3946.907 1.488e-16 1.633e-17
3947.988 1.318e-16 1.683e-17
3949.067 1.127e-16 1.627e-17
3950.148 1.503e-16 1.658e-17
3951.228 1.611e-16 1.632e-17
3952.308 1.361e-16 1.668e-17
3953.388 1.294e-16 1.569e-17
3954.469 1.637e-16 1.728e-17
3955.549 1.575e-16 1.741e-17
3956.629 1.63e-16 1.701e-17
3957.71 1.589e-16 1.721e-17
3958.791 1.433e-16 1.665e-17
3959.87 1.665e-16 1.691e-17
3960.951 1.158e-16 1.608e-17
3962.032 1.477e-16 1.557e-17
3963.113 1.369e-16 1.491e-17
3964.193 1.327e-16 1.534e-17
3965.274 1.412e-16 1.528e-17
3966.354 1.094e-16 1.345e-17
3967.434 1.559e-16 1.485e-17
3968.515 1.416e-16 1.383e-17
3969.596 1.31e-16 1.338e-17
3970.677 1.525e-16 1.427e-17
3971.757 1.403e-16 1.455e-17
3972.839 1.26e-16 1.411e-17
3973.92 1.22e-16 1.432e-17
3975.001 1.622e-16 1.602e-17
3976.081 1.254e-16 1.501e-17
3977.162 1.614e-16 1.607e-17
3978.243 1.614e-16 1.675e-17
3979.324 1.534e-16 1.642e-17
3980.405 1.177e-16 1.523e-17
3981.486 1.439e-16 1.635e-17
3982.568 1.316e-16 1.65e-17
3983.648 1.236e-16 1.585e-17
3984.73 1.214e-16 1.607e-17
3985.811 1.287e-16 1.594e-17
3986.891 1.587e-16 1.675e-17
3987.973 1.288e-16 1.638e-17
3989.054 1.621e-16 1.718e-17
3990.136 1.183e-16 1.633e-17
3991.217 1.197e-16 1.653e-17
3992.298 1.484e-16 1.694e-17
3993.38 1.55e-16 1.714e-17
3994.46 1.433e-16 1.683e-17
3995.542 1.456e-16 1.706e-17
3996.624 1.375e-16 1.641e-17
3997.706 1.162e-16 1.594e-17
3998.786 1.462e-16 1.704e-17
3999.868 1.397e-16 1.661e-17
4000.95 1.175e-16 1.62e-17
4002.031 1.631e-16 1.828e-17
4003.113 1.378e-16 1.662e-17
4004.195 1.717e-16 1.803e-17
4005.276 1.732e-16 1.735e-17
4006.357 1.219e-16 1.603e-17
4007.439 1.676e-16 1.729e-17
4008.521 1.018e-16 1.667e-17
4009.602 1.598e-16 1.733e-17
4010.684 1.431e-16 1.746e-17
4011.767 1.225e-16 1.663e-17
4012.849 1.357e-16 1.691e-17
4013.93 1.135e-16 1.666e-17
4015.012 1.344e-16 1.677e-17
4016.094 1.419e-16 1.655e-17
4017.175 1.572e-16 1.703e-17
4018.258 1.199e-16 1.632e-17
4019.34 1.398e-16 1.671e-17
4020.422 1.093e-16 1.623e-17
4021.504 1.377e-16 1.68e-17
4022.586 1.506e-16 1.695e-17
4023.668 1.496e-16 1.676e-17
4024.751 1.119e-16 1.588e-17
4025.832 1.359e-16 1.714e-17
4026.915 1.004e-16 1.559e-17
4027.997 1.494e-16 1.744e-17
4029.079 1.563e-16 1.665e-17
4030.161 1.261e-16 1.627e-17
4031.244 1.534e-16 1.666e-17
4032.326 1.137e-16 1.483e-17
4033.408 1.34e-16 1.588e-17
4034.49 1.44e-16 1.604e-17
4035.573 1.368e-16 1.608e-17
4036.655 1.647e-16 1.704e-17
4037.738 1.19e-16 1.564e-17
4038.82 1.454e-16 1.688e-17
4039.903 1.617e-16 1.709e-17
4040.985 1.122e-16 1.583e-17
4042.068 1.047e-16 1.579e-17
4043.15 1.617e-16 1.756e-17
4044.232 1.119e-16 1.55e-17
4045.315 1.632e-16 1.773e-17
4046.398 9.251e-17 1.646e-17
4047.481 1.45e-16 1.845e-17
4048.563 9.873e-17 1.743e-17
4049.646 1.527e-16 1.746e-17
4050.729 1.419e-16 1.72e-17
4051.811 1.331e-16 1.654e-17
4052.894 1.223e-16 1.569e-17
4053.977 1.381e-16 1.616e-17
4055.06 1.375e-16 1.575e-17
4056.143 1.128e-16 1.516e-17
4057.226 1.515e-16 1.618e-17
4058.309 1.46e-16 1.582e-17
4059.391 1.454e-16 1.574e-17
4060.474 1.4e-16 1.61e-17
4061.558 1.493e-16 1.639e-17
4062.641 1.479e-16 1.574e-17
4063.723 1.403e-16 1.597e-17
4064.807 1.573e-16 1.595e-17
4065.89 1.272e-16 1.555e-17
4066.972 1.262e-16 1.534e-17
4068.056 1.296e-16 1.56e-17
4069.139 1.354e-16 1.608e-17
4070.223 1.321e-16 1.571e-17
4071.305 1.163e-16 1.474e-17
4072.389 1.306e-16 1.508e-17
4073.472 1.158e-16 1.5e-17
4074.555 1.223e-16 1.552e-17
4075.638 1.29e-16 1.532e-17
4076.722 1.159e-16 1.493e-17
4077.806 1.455e-16 1.571e-17
4078.888 1.232e-16 1.529e-17
4079.972 1.683e-16 1.634e-17
4081.056 1.119e-16 1.525e-17
4082.138 1.564e-16 1.58e-17
4083.222 1.29e-16 1.603e-17
4084.306 1.049e-16 1.479e-17
4085.39 1.27e-16 1.511e-17
4086.472 1.238e-16 1.499e-17
4087.556 1.541e-16 1.641e-17
4088.64 1.188e-16 1.54e-17
4089.724 1.637e-16 1.605e-17
4090.807 8.363e-17 1.47e-17
4091.891 1.379e-16 1.542e-17
4092.975 1.24e-16 1.508e-17
4094.058 1.155e-16 1.532e-17
4095.142 1.473e-16 1.553e-17
4096.226 1.091e-16 1.484e-17
4097.31 1.289e-16 1.514e-17
4098.393 1.323e-16 1.515e-17
4099.477 1.219e-16 1.455e-17
4100.561 1.314e-16 1.491e-17
4101.644 1.574e-16 1.537e-17
4102.729 1.431e-16 1.466e-17
4103.813 1.245e-16 1.443e-17
4104.897 1.134e-16 1.416e-17
4105.98 1.09e-16 1.487e-17
4107.064 1.138e-16 1.463e-17
4108.149 1.153e-16 1.508e-17
4109.232 1.184e-16 1.53e-17
4110.316 1.214e-16 1.505e-17
4111.401 1.478e-16 1.624e-17
4112.485 1.338e-16 1.564e-17
4113.569 1.159e-16 1.508e-17
4114.653 1.171e-16 1.533e-17
4115.737 1.133e-16 1.503e-17
4116.821 1.452e-16 1.624e-17
4117.905 1.498e-16 1.591e-17
4118.99 1.242e-16 1.488e-17
4120.074 1.606e-16 1.606e-17
4121.158 1.289e-16 1.545e-17
4122.243 1.294e-16 1.57e-17
4123.327 1.613e-16 1.65e-17
4124.411 1.54e-16 1.628e-17
4125.495 1.15e-16 1.515e-17
4126.58 1.433e-16 1.578e-17
4127.665 1.099e-16 1.513e-17
4128.748 1.413e-16 1.55e-17
4129.833 1.226e-16 1.547e-17
4130.918 1.109e-16 1.469e-17
4132.002 9.838e-17 1.426e-17
4133.086 8.946e-17 1.424e-17
4134.171 1.218e-16 1.519e-17
4135.256 1.447e-16 1.559e-17
4136.34 1.096e-16 1.458e-17
4137.425 1.112e-16 1.491e-17
4138.51 1.41e-16 1.557e-17
4139.594 1.352e-16 1.556e-17
4140.679 1.185e-16 1.513e-17
4141.764 1.754e-16 1.594e-17
4142.849 9.761e-17 1.376e-17
4143.933 1.143e-16 1.466e-17
4145.018 1.29e-16 1.484e-17
4146.103 1.465e-16 1.478e-17
4147.187 1.226e-16 1.456e-17
4148.272 9.581e-17 1.449e-17
4149.357 1.12e-16 1.437e-17
4150.442 1.227e-16 1.493e-17
4151.526 1.338e-16 1.513e-17
4152.611 1.592e-16 1.558e-17
4153.697 1.203e-16 1.5e-17
4154.781 1.152e-16 1.442e-17
4155.866 1.501e-16 1.551e-17
4156.951 1.429e-16 1.522e-17
4158.037 1.19e-16 1.503e-17
4159.121 1.37e-16 1.549e-17
4160.206 1.325e-16 1.512e-17
4161.292 1.129e-16 1.447e-17
4162.376 1.104e-16 1.484e-17
4163.461 1.603e-16 1.581e-17
4164.547 9.338e-17 1.471e-17
4165.632 9.974e-17 1.42e-17
4166.717 1.311e-16 1.553e-17
4167.802 1.294e-16 1.495e-17
4168.887 1.131e-16 1.449e-17
4169.972 1.212e-16 1.506e-17
4171.058 1.003e-16 1.374e-17
4172.143 1.084e-16 1.42e-17
4173.229 8.971e-17 1.37e-17
4174.313 1.165e-16 1.434e-17
4175.399 1.301e-16 1.449e-17
4176.484 1.012e-16 1.395e-17
4177.569 1.265e-16 1.453e-17
4178.655 1.148e-16 1.44e-17
4179.74 9.097e-17 1.376e-17
4180.826 1.168e-16 1.411e-17
4181.911 1.204e-16 1.45e-17
4182.997 1.462e-16 1.459e-17
4184.082 1.327e-16 1.457e-17
4185.167 1.268e-16 1.435e-17
4186.253 1.262e-16 1.439e-17
4187.339 1.16e-16 1.415e-17
4188.425 1.301e-16 1.448e-17
4189.509 1.238e-16 1.446e-17
4190.595 9.289e-17 1.387e-17
4191.681 1.268e-16 1.489e-17
4192.766 1.31e-16 1.478e-17
4193.852 1.501e-16 1.535e-17
4194.938 1.433e-16 1.532e-17
4196.024 1.34e-16 1.484e-17
4197.109 1.089e-16 1.415e-17
4198.195 1.276e-16 1.454e-17
4199.281 1.121e-16 1.413e-17
4200.367 1.051e-16 1.383e-17
4201.452 1.062e-16 1.403e-17
4202.538 1.311e-16 1.466e-17
4203.624 1.346e-16 1.476e-17
4204.709 8.578e-17 1.376e-17
4205.796 1.285e-16 1.41e-17
4206.882 1.197e-16 1.38e-17
4207.968 1.119e-16 1.399e-17
4209.053 1.246e-16 1.44e-17
4210.139 9.513e-17 1.383e-17
4211.226 9.89e-17 1.347e-17
4212.311 1.091e-16 1.402e-17
4213.397 1.044e-16 1.414e-17
4214.483 1.049e-16 1.373e-17
4215.57 1.167e-16 1.381e-17
4216.655 1.07e-16 1.382e-17
4217.741 1.102e-16 1.311e-17
4218.828 1.164e-16 1.399e-17
4219.913 1.089e-16 1.353e-17
4220.999 9.86e-17 1.36e-17
4222.086 7.729e-17 1.342e-17
4223.172 7.713e-17 1.314e-17
4224.258 1.33e-16 1.446e-17
4225.344 8.596e-17 1.275e-17
4226.431 1.303e-16 1.351e-17
4227.516 1.24e-16 1.353e-17
4228.603 1.11e-16 1.335e-17
4229.689 8.516e-17 1.272e-17
4230.776 9.149e-17 1.371e-17
4231.861 1.045e-16 1.388e-17
4232.948 1.119e-16 1.424e-17
4234.035 1.1e-16 1.428e-17
4235.12 1.008e-16 1.363e-17
4236.207 1.21e-16 1.378e-17
4237.294 9.046e-17 1.323e-17
4238.38 1.092e-16 1.39e-17
4239.466 8.566e-17 1.303e-17
4240.553 1.044e-16 1.346e-17
4241.639 1.243e-16 1.389e-17
4242.725 1.059e-16 1.375e-17
4243.812 1.113e-16 1.384e-17
4244.899 1.085e-16 1.372e-17
4245.985 1.158e-16 1.393e-17
4247.071 1.022e-16 1.433e-17
4248.158 1.064e-16 1.372e-17
4249.245 1.07e-16 1.319e-17
4250.331 9.477e-17 1.313e-17
4251.418 1.025e-16 1.398e-17
4252.505 1.208e-16 1.415e-17
4253.591 9.925e-17 1.355e-17
4254.677 1.288e-16 1.38e-17
4255.764 1.172e-16 1.353e-17
4256.851 9.788e-17 1.325e-17
4257.937 1.002e-16 1.256e-17
4259.024 1.094e-16 1.297e-17
4260.111 1.247e-16 1.315e-17
4261.198 1.042e-16 1.308e-17
4262.284 1.285e-16 1.341e-17
4263.371 1.122e-16 1.331e-17
4264.459 1.291e-16 1.401e-17
4265.545 1.057e-16 1.341e-17
4266.632 1.039e-16 1.278e-17
4267.719 1.086e-16 1.32e-17
4268.806 1.179e-16 1.341e-17
4269.892 8.59e-17 1.205e-17
4270.979 1.241e-16 1.312e-17
4272.067 9.854e-17 1.198e-17
4273.153 9.356e-17 1.231e-17
4274.24 1.294e-16 1.322e-17
4275.327 1.012e-16 1.254e-17
4276.414 1.037e-16 1.289e-17
4277.501 1.128e-16 1.331e-17
4278.588 1.331e-16 1.335e-17
4279.675 1.118e-16 1.257e-17
4280.762 1.185e-16 1.331e-17
4281.849 1.167e-16 1.304e-17
4282.936 1.199e-16 1.285e-17
4284.024 1.127e-16 1.315e-17
4285.11 1.052e-16 1.333e-17
4286.197 1.184e-16 1.289e-17
4287.285 7.906e-17 1.196e-17
4288.371 1.096e-16 1.257e-17
4289.459 8.441e-17 1.187e-17
4290.546 1.24e-16 1.261e-17
4291.634 1.133e-16 1.278e-17
4292.72 1.263e-16 1.297e-17
4293.808 1.207e-16 1.364e-17
4294.895 9.079e-17 1.237e-17
4295.982 1.046e-16 1.231e-17
4297.069 1.261e-16 1.308e-17
4298.157 9.458e-17 1.2e-17
4299.244 1.278e-16 1.285e-17
4300.331 1.46e-16 1.301e-17
4301.419 1.094e-16 1.252e-17
4302.506 9.607e-17 1.158e-17
4303.593 1.019e-16 1.2e-17
4304.68 1.179e-16 1.247e-17
4305.768 1.229e-16 1.258e-17
4306.856 1.212e-16 1.258e-17
4307.942 1.176e-16 1.248e-17
4309.03 1.088e-16 1.222e-17
4310.118 1e-16 1.191e-17
4311.205 1.084e-16 1.191e-17
4312.292 1.216e-16 1.225e-17
4313.38 1.286e-16 1.288e-17
4314.468 1.291e-16 1.313e-17
4315.555 1.061e-16 1.28e-17
4316.643 1.132e-16 1.343e-17
4317.73 1.14e-16 1.327e-17
4318.817 1.025e-16 1.354e-17
4319.905 1.073e-16 1.345e-17
4320.993 1.304e-16 1.397e-17
4322.081 9.615e-17 1.265e-17
4323.168 1.06e-16 1.265e-17
4324.256 1.192e-16 1.225e-17
4325.343 1.14e-16 1.246e-17
4326.43 1.162e-16 1.23e-17
4327.518 1.022e-16 1.238e-17
4328.606 9.721e-17 1.226e-17
4329.694 9.92e-17 1.274e-17
4330.781 1.225e-16 1.316e-17
4331.869 1.092e-16 1.301e-17
4332.957 8.78e-17 1.267e-17
4334.044 9.787e-17 1.32e-17
4335.132 1.084e-16 1.333e-17
4336.22 1.048e-16 1.317e-17
4337.308 1.343e-16 1.353e-17
4338.395 1.173e-16 1.305e-17
4339.484 1.169e-16 1.246e-17
4340.572 8.11e-17 1.183e-17
4341.659 1.242e-16 1.312e-17
4342.747 1.121e-16 1.295e-17
4343.835 1.108e-16 1.268e-17
4344.923 1.166e-16 1.313e-17
4346.01 9.865e-17 1.27e-17
4347.098 9.628e-17 1.307e-17
4348.187 1.05e-16 1.341e-17
4349.274 1.168e-16 1.341e-17
4350.362 1.047e-16 1.293e-17
4351.45 1.137e-16 1.292e-17
4352.538 1.167e-16 1.305e-17
4353.626 1.201e-16 1.354e-17
4354.714 1.082e-16 1.298e-17
4355.802 8.209e-17 1.278e-17
4356.89 1.238e-16 1.518e-17
4357.978 1.213e-16 1.684e-17
4359.066 1.245e-16 1.786e-17
4360.154 1.065e-16 1.654e-17
4361.242 9.684e-17 1.466e-17
4362.33 1.17e-16 1.48e-17
4363.419 1.452e-16 1.458e-17
4364.506 8.976e-17 1.345e-17
4365.594 1.421e-16 1.419e-17
4366.683 1.068e-16 1.386e-17
4367.77 9.81e-17 1.313e-17
4368.859 1.181e-16 1.38e-17
4369.947 1.226e-16 1.401e-17
4371.035 1.134e-16 1.355e-17
4372.123 1.287e-16 1.413e-17
4373.211 1.439e-16 1.429e-17
4374.3 9.712e-17 1.284e-17
4375.387 1.428e-16 1.429e-17
4376.476 1.234e-16 1.334e-17
4377.564 1.057e-16 1.342e-17
4378.653 1.26e-16 1.39e-17
4379.74 9.221e-17 1.322e-17
4380.829 1.329e-16 1.353e-17
4381.918 1.002e-16 1.262e-17
4383.005 1.213e-16 1.334e-17
4384.094 1.11e-16 1.266e-17
4385.182 1.038e-16 1.227e-17
4386.271 1.075e-16 1.275e-17
4387.359 1.124e-16 1.334e-17
4388.447 1.144e-16 1.303e-17
4389.536 1.335e-16 1.303e-17
4390.623 1.016e-16 1.254e-17
4391.712 1.291e-16 1.356e-17
4392.801 1.074e-16 1.296e-17
4393.889 1.055e-16 1.318e-17
4394.977 1.49e-16 1.354e-17
4396.066 1.003e-16 1.253e-17
4397.155 1.109e-16 1.301e-17
4398.242 1.268e-16 1.355e-17
4399.331 1.047e-16 1.279e-17
4400.42 8.912e-17 1.262e-17
4401.509 1.134e-16 1.347e-17
4402.596 1.227e-16 1.35e-17
4403.685 1.173e-16 1.351e-17
4404.774 1.277e-16 1.32e-17
4405.862 1.046e-16 1.274e-17
4406.95 1.156e-16 1.328e-17
4408.039 1.091e-16 1.329e-17
4409.128 1.279e-16 1.308e-17
4410.216 1.109e-16 1.311e-17
4411.305 1.242e-16 1.333e-17
4412.394 1.419e-16 1.381e-17
4413.482 1.099e-16 1.286e-17
4414.57 1.332e-16 1.362e-17
4415.659 1.137e-16 1.28e-17
4416.748 1.211e-16 1.304e-17
4417.836 1.156e-16 1.325e-17
4418.925 1.29e-16 1.401e-17
4420.014 1.095e-16 1.363e-17
4421.102 9.785e-17 1.271e-17
4422.191 9.015e-17 1.256e-17
4423.28 9.022e-17 1.265e-17
4424.369 1.31e-16 1.378e-17
4425.457 1.03e-16 1.256e-17
4426.546 1.153e-16 1.316e-17
4427.635 1.393e-16 1.374e-17
4428.723 1.112e-16 1.3e-17
4429.812 1.26e-16 1.31e-17
4430.901 7.057e-17 1.19e-17
4431.99 1.156e-16 1.331e-17
4433.078 1.158e-16 1.287e-17
4434.167 1.094e-16 1.239e-17
4435.256 1.461e-16 1.351e-17
4436.344 1.05e-16 1.252e-17
4437.433 1.265e-16 1.346e-17
4438.522 8.954e-17 1.251e-17
4439.611 1.278e-16 1.325e-17
4440.699 1.311e-16 1.321e-17
4441.788 1.212e-16 1.295e-17
4442.878 1.164e-16 1.298e-17
4443.966 1.08e-16 1.238e-17
4445.055 1.191e-16 1.353e-17
4446.144 1.252e-16 1.33e-17
4447.233 9.705e-17 1.309e-17
4448.321 9.922e-17 1.239e-17
4449.411 9.7e-17 1.25e-17
4450.5 1.155e-16 1.323e-17
4451.588 1.163e-16 1.309e-17
4452.677 1.14e-16 1.305e-17
4453.766 1.244e-16 1.311e-17
4454.856 9.498e-17 1.247e-17
4455.944 1.425e-16 1.331e-17
4457.033 9.268e-17 1.218e-17
4458.122 9.511e-17 1.219e-17
4459.21 1.436e-16 1.351e-17
4460.3 8.468e-17 1.201e-17
4461.389 8.946e-17 1.216e-17
4462.478 1.318e-16 1.298e-17
4463.567 1.429e-16 1.354e-17
4464.656 1.179e-16 1.316e-17
4465.745 1.068e-16 1.277e-17
4466.833 9.849e-17 1.278e-17
4467.923 1.147e-16 1.28e-17
4469.012 1.073e-16 1.267e-17
4470.101 1.372e-16 1.324e-17
4471.19 1.222e-16 1.296e-17
4472.279 1.143e-16 1.253e-17
4473.368 1.182e-16 1.249e-17
4474.457 1.093e-16 1.265e-17
4475.546 1.26e-16 1.332e-17
4476.635 1.3e-16 1.349e-17
4477.724 1.157e-16 1.316e-17
4478.813 1.042e-16 1.259e-17
4479.903 1.248e-16 1.352e-17
4480.992 1.001e-16 1.239e-17
4482.08 7.552e-17 1.14e-17
4483.17 1.2e-16 1.313e-17
4484.259 9.12e-17 1.264e-17
4485.348 1.326e-16 1.325e-17
4486.437 8.52e-17 1.221e-17
4487.527 1.122e-16 1.299e-17
4488.616 1.063e-16 1.268e-17
4489.704 8.586e-17 1.213e-17
4490.794 1.033e-16 1.275e-17
4491.883 1.16e-16 1.262e-17
4492.972 1.228e-16 1.306e-17
4494.061 1.249e-16 1.303e-17
4495.151 1.061e-16 1.246e-17
4496.24 9.977e-17 1.221e-17
4497.329 1.071e-16 1.246e-17
4498.418 8.473e-17 1.202e-17
4499.508 1.057e-16 1.274e-17
4500.596 1.245e-16 1.338e-17
4501.686 1.025e-16 1.274e-17
4502.775 1.099e-16 1.314e-17
4503.865 1.034e-16 1.283e-17
4504.954 1.022e-16 1.246e-17
4506.043 1.061e-16 1.292e-17
4507.133 1.091e-16 1.294e-17
4508.221 1.063e-16 1.298e-17
4509.311 1.173e-16 1.344e-17
4510.4 1.263e-16 1.365e-17
4511.49 1.081e-16 1.277e-17
4512.578 9.517e-17 1.291e-17
4513.668 1.198e-16 1.278e-17
4514.758 9.224e-17 1.24e-17
4515.846 9.842e-17 1.272e-17
4516.936 1.276e-16 1.308e-17
4518.026 1.022e-16 1.26e-17
4519.115 1.118e-16 1.261e-17
4520.204 1.254e-16 1.367e-17
4521.293 1.296e-16 1.333e-17
4522.383 1.218e-16 1.31e-17
4523.472 1.245e-16 1.313e-17
4524.561 1.207e-16 1.323e-17
4525.651 1.036e-16 1.231e-17
4526.741 1.18e-16 1.249e-17
4527.829 1.174e-16 1.297e-17
4528.919 1.339e-16 1.294e-17
4530.009 1.237e-16 1.3e-17
4531.097 9.553e-17 1.233e-17
4532.187 1.057e-16 1.225e-17
4533.277 1.008e-16 1.254e-17
4534.366 1.369e-16 1.342e-17
4535.455 1.175e-16 1.236e-17
4536.545 1.092e-16 1.244e-17
4537.635 9.54e-17 1.282e-17
4538.723 9.068e-17 1.216e-17
4539.813 1.146e-16 1.297e-17
4540.903 1.154e-16 1.278e-17
4541.992 1.166e-16 1.314e-17
4543.081 9.736e-17 1.237e-17
4544.171 1.129e-16 1.287e-17
4545.261 1.05e-16 1.226e-17
4546.349 8.003e-17 1.16e-17
4547.439 1.009e-16 1.259e-17
4548.529 1.214e-16 1.285e-17
4549.619 1.149e-16 1.27e-17
4550.707 1.156e-16 1.246e-17
4551.797 9.563e-17 1.239e-17
4552.887 1.094e-16 1.291e-17
4553.976 1.154e-16 1.259e-17
4555.065 1.142e-16 1.269e-17
4556.155 1.227e-16 1.276e-17
4557.245 9.758e-17 1.175e-17
4558.334 1.04e-16 1.221e-17
4559.424 1.295e-16 1.281e-17
4560.513 8.875e-17 1.211e-17
4561.602 8.001e-17 1.192e-17
4562.692 1.014e-16 1.266e-17
4563.782 1.186e-16 1.252e-17
4564.871 1.014e-16 1.242e-17
4565.961 1.198e-16 1.23e-17
4567.05 9.639e-17 1.216e-17
4568.14 1.142e-16 1.264e-17
4569.229 1.12e-16 1.293e-17
4570.319 9.958e-17 1.212e-17
4571.409 9.771e-17 1.207e-17
4572.497 1.089e-16 1.248e-17
4573.587 1.201e-16 1.259e-17
4574.677 8.881e-17 1.198e-17
4575.767 1.121e-16 1.284e-17
4576.856 9.034e-17 1.207e-17
4577.946 9.824e-17 1.212e-17
4579.036 1.142e-16 1.242e-17
4580.124 1.021e-16 1.21e-17
4581.214 1.057e-16 1.236e-17
4582.304 1.365e-16 1.273e-17
4583.394 1.202e-16 1.251e-17
4584.483 1.26e-16 1.276e-17
4585.573 1.062e-16 1.231e-17
4586.663 7.997e-17 1.127e-17
4587.752 1.132e-16 1.213e-17
4588.841 1.084e-16 1.209e-17
4589.931 9.442e-17 1.224e-17
4591.021 1.139e-16 1.264e-17
4592.11 9.47e-17 1.178e-17
4593.2 9.79e-17 1.195e-17
4594.29 9.075e-17 1.2e-17
4595.379 9.717e-17 1.212e-17
4596.469 1.006e-16 1.241e-17
4597.559 1.086e-16 1.218e-17
4598.649 1.007e-16 1.198e-17
4599.737 1.073e-16 1.249e-17
4600.827 1.411e-16 1.266e-17
4601.917 1.088e-16 1.215e-17
4603.006 9.392e-17 1.22e-17
4604.096 1.125e-16 1.222e-17
4605.186 1.217e-16 1.238e-17
4606.276 1.102e-16 1.184e-17
4607.365 1.002e-16 1.205e-17
4608.455 9.81e-17 1.218e-17
4609.545 1.209e-16 1.233e-17
4610.634 9.232e-17 1.167e-17
4611.724 1.114e-16 1.232e-17
4612.814 9.954e-17 1.226e-17
4613.903 1.099e-16 1.225e-17
4614.992 8.956e-17 1.159e-17
4616.082 1.057e-16 1.242e-17
4617.172 9.006e-17 1.15e-17
4618.261 1.239e-16 1.215e-17
4619.351 9.614e-17 1.202e-17
4620.441 8.883e-17 1.095e-17
4621.531 1.169e-16 1.232e-17
4622.62 1.015e-16 1.175e-17
4623.71 1.044e-16 1.218e-17
4624.8 1.249e-16 1.281e-17
4625.889 1.04e-16 1.188e-17
4626.979 1.086e-16 1.215e-17
4628.069 1.048e-16 1.247e-17
4629.158 9.853e-17 1.182e-17
4630.248 9.423e-17 1.175e-17
4631.338 1.053e-16 1.204e-17
4632.428 9.574e-17 1.171e-17
4633.517 1.289e-16 1.263e-17
4634.607 1.207e-16 1.262e-17
4635.696 1.004e-16 1.213e-17
4636.785 1.128e-16 1.208e-17
4637.875 1.122e-16 1.229e-17
4638.965 1.094e-16 1.22e-17
4640.055 9.881e-17 1.179e-17
4641.144 1.19e-16 1.218e-17
4642.234 1.025e-16 1.208e-17
4643.324 9.487e-17 1.177e-17
4644.413 1.132e-16 1.23e-17
4645.503 1.077e-16 1.139e-17
4646.593 1.039e-16 1.19e-17
4647.683 1.148e-16 1.178e-17
4648.772 1.191e-16 1.176e-17
4649.862 1.098e-16 1.212e-17
4650.952 9.557e-17 1.149e-17
4652.041 1.022e-16 1.2e-17
4653.131 1.221e-16 1.229e-17
4654.221 1.138e-16 1.215e-17
4655.311 9.486e-17 1.189e-17
4656.4 1.107e-16 1.191e-17
4657.49 1.083e-16 1.228e-17
4658.58 9.7e-17 1.17e-17
4659.669 9.539e-17 1.176e-17
4660.759 8.602e-17 1.127e-17
4661.849 1.068e-16 1.198e-17
4662.939 9.038e-17 1.196e-17
4664.028 1.022e-16 1.192e-17
4665.117 1.08e-16 1.229e-17
4666.207 1.178e-16 1.214e-17
4667.296 8.596e-17 1.12e-17
4668.386 1.188e-16 1.174e-17
4669.476 1.125e-16 1.188e-17
4670.566 9.393e-17 1.147e-17
4671.655 1.02e-16 1.178e-17
4672.745 1.123e-16 1.236e-17
4673.835 1.009e-16 1.157e-17
4674.924 1.078e-16 1.211e-17
4676.014 1.025e-16 1.191e-17
4677.104 9.852e-17 1.155e-17
4678.194 1.055e-16 1.179e-17
4679.283 9.157e-17 1.11e-17
4680.373 1.051e-16 1.19e-17
4681.463 1.073e-16 1.195e-17
4682.552 9.495e-17 1.13e-17
4683.642 9.632e-17 1.129e-17
4684.732 1.071e-16 1.165e-17
4685.821 9.653e-17 1.164e-17
4686.911 8.784e-17 1.085e-17
4688.0 7.935e-17 1.076e-17
4689.09 9.711e-17 1.11e-17
4690.179 1.144e-16 1.193e-17
4691.269 9.295e-17 1.178e-17
4692.359 1.015e-16 1.152e-17
4693.448 1.12e-16 1.201e-17
4694.538 8.839e-17 1.113e-17
4695.628 9.938e-17 1.182e-17
4696.718 6.661e-17 1.063e-17
4697.807 8.506e-17 1.021e-17
4698.897 8.489e-17 1.103e-17
4699.987 9.498e-17 1.119e-17
4701.076 1.003e-16 1.135e-17
4702.166 7.766e-17 1.122e-17
4703.255 9.771e-17 1.076e-17
4704.345 1.083e-16 1.128e-17
4705.434 8.175e-17 1.067e-17
4706.524 9.35e-17 1.155e-17
4707.614 9.355e-17 1.145e-17
4708.703 1.103e-16 1.168e-17
4709.793 1.023e-16 1.121e-17
4710.883 7.885e-17 1.119e-17
4711.973 9.655e-17 1.151e-17
4713.062 1.125e-16 1.171e-17
4714.152 8.933e-17 1.116e-17
4715.241 1.151e-16 1.217e-17
4716.33 1.009e-16 1.13e-17
4717.42 1.031e-16 1.188e-17
4718.51 9.804e-17 1.169e-17
4719.6 9.053e-17 1.149e-17
4720.689 9.92e-17 1.189e-17
4721.779 1.026e-16 1.191e-17
4722.869 8.51e-17 1.14e-17
4723.957 7.23e-17 1.138e-17
4725.047 8.795e-17 1.124e-17
4726.137 1.18e-16 1.161e-17
4727.227 1.067e-16 1.218e-17
4728.316 1.088e-16 1.214e-17
4729.406 1.127e-16 1.192e-17
4730.496 1.028e-16 1.134e-17
4731.584 8.85e-17 1.13e-17
4732.674 9.41e-17 1.15e-17
4733.764 1.14e-16 1.161e-17
4734.854 8.382e-17 1.127e-17
4735.943 1.271e-16 1.243e-17
4737.033 8.768e-17 1.158e-17
4738.122 9.468e-17 1.159e-17
4739.211 9.263e-17 1.188e-17
4740.301 1.014e-16 1.178e-17
4741.391 1.045e-16 1.185e-17
4742.48 8.975e-17 1.158e-17
4743.57 1.06e-16 1.198e-17
4744.659 9.933e-17 1.183e-17
4745.749 7.343e-17 1.104e-17
4746.838 1.073e-16 1.223e-17
4747.928 1.026e-16 1.2e-17
4749.018 1.123e-16 1.185e-17
4750.106 9.244e-17 1.168e-17
4751.196 1.059e-16 1.188e-17
4752.286 8.651e-17 1.134e-17
4753.376 8.582e-17 1.152e-17
4754.464 9.202e-17 1.124e-17
4755.554 1.079e-16 1.19e-17
4756.644 1.045e-16 1.195e-17
4757.733 7.968e-17 1.09e-17
4758.822 8.94e-17 1.169e-17
4759.912 9.763e-17 1.141e-17
4761.002 7.971e-17 1.103e-17
4762.091 1.097e-16 1.228e-17
4763.18 8.589e-17 1.136e-17
4764.27 8.42e-17 1.093e-17
4765.359 1.037e-16 1.154e-17
4766.449 9.75e-17 1.128e-17
4767.538 8.438e-17 1.132e-17
4768.628 8.83e-17 1.127e-17
4769.717 8.713e-17 1.16e-17
4770.806 9.632e-17 1.148e-17
4771.896 8.973e-17 1.125e-17
4772.985 8.83e-17 1.113e-17
4774.075 7.926e-17 1.106e-17
4775.164 1.044e-16 1.212e-17
4776.254 7.503e-17 1.097e-17
4777.343 8.417e-17 1.137e-17
4778.432 8.899e-17 1.163e-17
4779.522 7.316e-17 1.133e-17
4780.611 7.266e-17 1.086e-17
4781.7 7.591e-17 1.144e-17
4782.79 8.496e-17 1.124e-17
4783.879 9.181e-17 1.114e-17
4784.968 9.012e-17 1.138e-17
4786.058 7.824e-17 1.128e-17
4787.147 8.327e-17 1.1e-17
4788.236 1.133e-16 1.16e-17
4789.326 9.853e-17 1.132e-17
4790.415 8.235e-17 1.157e-17
4791.504 8.216e-17 1.102e-17
4792.593 9.636e-17 1.162e-17
4793.683 8.33e-17 1.123e-17
4794.773 1.022e-16 1.196e-17
4795.861 8.35e-17 1.158e-17
4796.951 9.143e-17 1.179e-17
4798.04 8.705e-17 1.136e-17
4799.129 1.038e-16 1.194e-17
4800.218 1.179e-16 1.157e-17
4801.308 7.045e-17 1.083e-17
4802.397 7.812e-17 1.157e-17
4803.486 8.36e-17 1.1e-17
4804.576 1.11e-16 1.194e-17
4805.665 9.14e-17 1.138e-17
4806.754 1.011e-16 1.169e-17
4807.843 9.722e-17 1.145e-17
4808.933 9.22e-17 1.155e-17
4810.022 1.023e-16 1.158e-17
4811.111 1.009e-16 1.175e-17
4812.2 9.374e-17 1.124e-17
4813.29 9.255e-17 1.164e-17
4814.378 9.094e-17 1.137e-17
4815.467 1.004e-16 1.149e-17
4816.557 9.582e-17 1.237e-17
4817.646 1.128e-16 1.23e-17
4818.735 7.382e-17 1.13e-17
4819.824 7.026e-17 1.155e-17
4820.914 1.001e-16 1.199e-17
4822.002 1.005e-16 1.177e-17
4823.092 9.832e-17 1.133e-17
4824.181 1.011e-16 1.184e-17
4825.27 9.921e-17 1.196e-17
4826.359 1.146e-16 1.21e-17
4827.448 7.58e-17 1.068e-17
4828.537 7.708e-17 1.117e-17
4829.626 9.345e-17 1.147e-17
4830.715 1.059e-16 1.175e-17
4831.805 1.054e-16 1.17e-17
4832.894 8.422e-17 1.119e-17
4833.982 8.947e-17 1.146e-17
4835.072 9.414e-17 1.119e-17
4836.161 6.902e-17 1.105e-17
4837.249 9.085e-17 1.148e-17
4838.339 7.117e-17 1.123e-17
4839.428 9.206e-17 1.132e-17
4840.516 1.154e-16 1.213e-17
4841.605 1.058e-16 1.219e-17
4842.695 7.393e-17 1.105e-17
4843.784 8.648e-17 1.126e-17
4844.872 7.566e-17 1.038e-17
4845.962 6.382e-17 1.093e-17
4847.051 8.4e-17 1.156e-17
4848.139 7.767e-17 1.117e-17
4849.228 8.584e-17 1.152e-17
4850.317 9.036e-17 1.163e-17
4851.407 9.377e-17 1.18e-17
4852.495 1.067e-16 1.204e-17
4853.584 8.056e-17 1.082e-17
4854.673 7.973e-17 1.072e-17
4855.761 8.324e-17 1.102e-17
4856.851 9.079e-17 1.096e-17
4857.94 9.446e-17 1.123e-17
4859.029 7.862e-17 1.012e-17
4860.117 9.147e-17 1.117e-17
4861.206 6.537e-17 1.074e-17
4862.295 8.252e-17 1.095e-17
4863.384 8.773e-17 1.109e-17
4864.473 1.105e-16 1.185e-17
4865.562 8.398e-17 1.076e-17
4866.651 8.717e-17 1.063e-17
4867.739 9.265e-17 1.106e-17
4868.828 7.848e-17 1.057e-17
4869.917 1.02e-16 1.146e-17
4871.005 9.287e-17 1.086e-17
4872.094 9.738e-17 1.154e-17
4873.183 8.246e-17 1.091e-17
4874.272 9.488e-17 1.133e-17
4875.36 9.594e-17 1.129e-17
4876.449 1.091e-16 1.156e-17
4877.538 9.109e-17 1.129e-17
4878.626 1.008e-16 1.182e-17
4879.715 8.862e-17 1.156e-17
4880.804 8.15e-17 1.071e-17
4881.893 9.093e-17 1.166e-17
4882.981 7.68e-17 1.102e-17
4884.07 7.567e-17 1.106e-17
4885.159 5.683e-17 9.876e-18
4886.247 8.246e-17 1.083e-17
4887.336 7.581e-17 1.045e-17
4888.425 7.393e-17 1.021e-17
4889.513 8.942e-17 1.124e-17
4890.602 8.468e-17 1.112e-17
4891.691 7.015e-17 1.055e-17
4892.779 8.784e-17 1.127e-17
4893.867 7.718e-17 1.089e-17
4894.956 9.602e-17 1.155e-17
4896.045 9.756e-17 1.18e-17
4897.133 6.838e-17 1.114e-17
4898.222 8.694e-17 1.109e-17
4899.31 8.553e-17 1.177e-17
4900.399 6.282e-17 1.055e-17
4901.487 9.587e-17 1.142e-17
4902.576 1.036e-16 1.159e-17
4903.665 7.763e-17 1.034e-17
4904.752 9.363e-17 1.121e-17
4905.841 8.302e-17 1.117e-17
4906.93 9.495e-17 1.099e-17
4908.019 7.293e-17 1.077e-17
4909.106 8.739e-17 1.082e-17
4910.195 7.942e-17 1.122e-17
4911.284 7.546e-17 1.038e-17
4912.371 9.986e-17 1.17e-17
4913.46 1.176e-16 1.18e-17
4914.549 6.728e-17 1.077e-17
4915.637 8.294e-17 1.112e-17
4916.725 8.64e-17 1.105e-17
4917.814 6.788e-17 1.023e-17
4918.902 1.01e-16 1.083e-17
4919.99 9.057e-17 1.117e-17
4921.078 8.436e-17 1.092e-17
4922.167 8.057e-17 1.114e-17
4923.256 6.217e-17 9.916e-18
4924.343 8.323e-17 1.14e-17
4925.432 7.009e-17 1.037e-17
4926.52 8.552e-17 1.094e-17
4927.608 5.384e-17 1.021e-17
4928.696 9.879e-17 1.177e-17
4929.785 9.164e-17 1.132e-17
4930.873 8.984e-17 1.179e-17
4931.961 7.886e-17 1.048e-17
4933.049 1.057e-16 1.132e-17
4934.138 7.033e-17 1.045e-17
4935.225 8.318e-17 1.094e-17
4936.314 7.897e-17 1.042e-17
4937.402 1.067e-16 1.116e-17
4938.489 6.997e-17 1.012e-17
4939.578 7.908e-17 1.013e-17
4940.666 9.265e-17 1.117e-17
4941.755 8.87e-17 1.117e-17
4942.842 8.789e-17 1.132e-17
4943.93 8.2e-17 1.115e-17
4945.019 8.177e-17 1.081e-17
4946.106 8.845e-17 1.133e-17
4947.194 8.497e-17 1.135e-17
4948.283 8.044e-17 1.038e-17
4949.371 8.826e-17 1.132e-17
4950.458 8.457e-17 1.097e-17
4951.546 7.654e-17 1.063e-17
4952.635 9.982e-17 1.112e-17
4953.722 9.251e-17 1.095e-17
4954.81 1.02e-16 1.192e-17
4955.898 7.933e-17 1.073e-17
4956.987 8.342e-17 1.055e-17
4958.074 7.362e-17 1.068e-17
4959.162 8.599e-17 1.069e-17
4960.25 7.714e-17 1.083e-17
4961.337 8.377e-17 1.108e-17
4962.425 8.606e-17 1.136e-17
4963.514 7.379e-17 1.043e-17
4964.602 8.882e-17 1.083e-17
4965.689 6.753e-17 1.054e-17
4966.777 8.41e-17 1.079e-17
4967.865 8.343e-17 1.07e-17
4968.952 7.855e-17 1.059e-17
4970.04 9.664e-17 1.175e-17
4971.128 9.524e-17 1.121e-17
4972.216 6.713e-17 1.066e-17
4973.303 7.945e-17 1.056e-17
4974.391 8.7e-17 1.096e-17
4975.479 1.01e-16 1.165e-17
4976.566 8.984e-17 1.113e-17
4977.654 8.153e-17 1.147e-17
4978.742 8.231e-17 1.045e-17
4979.83 9.03e-17 1.148e-17
4980.917 7.32e-17 1.059e-17
4982.005 8.881e-17 1.119e-17
4983.093 7.27e-17 1.079e-17
4984.18 9.745e-17 1.117e-17
4985.267 6.173e-17 1.023e-17
4986.355 6.915e-17 1.015e-17
4987.442 7.466e-17 1.087e-17
4988.53 7.257e-17 1.092e-17
4989.618 8.531e-17 1.088e-17
4990.706 8.086e-17 1.107e-17
4991.792 8.918e-17 1.059e-17
4992.88 8.366e-17 1.117e-17
4993.968 8.009e-17 1.062e-17
4995.055 1.041e-16 1.143e-17
4996.142 8.351e-17 1.13e-17
4997.23 9.843e-17 1.124e-17
4998.318 8.924e-17 1.106e-17
4999.404 9.035e-17 1.111e-17
5000.492 7.597e-17 1.075e-17
5001.58 9.108e-17 1.09e-17
5002.666 1.066e-16 1.13e-17
5003.754 8.851e-17 1.077e-17
5004.842 1.119e-16 1.152e-17
5005.929 8.799e-17 1.056e-17
5007.016 7.358e-17 9.974e-18
5008.103 7.343e-17 1.013e-17
5009.191 8.672e-17 1.069e-17
5010.277 8.745e-17 1.095e-17
5011.365 8.792e-17 1.087e-17
5012.452 8.717e-17 1.076e-17
5013.54 8.776e-17 1.063e-17
5014.626 6.957e-17 1.002e-17
5015.714 8.474e-17 1.059e-17
5016.801 7.893e-17 1.035e-17
5017.888 9.862e-17 1.125e-17
5018.975 9.272e-17 1.078e-17
5020.062 6.688e-17 1.034e-17
5021.15 9.644e-17 1.105e-17
5022.236 7.073e-17 1.091e-17
5023.324 1.08e-16 1.111e-17
5024.411 1.277e-16 1.197e-17
5025.497 8.784e-17 1.087e-17
5026.585 7.494e-17 1.056e-17
5027.672 1.071e-16 1.136e-17
5028.759 8.027e-17 9.942e-18
5029.845 8.398e-17 1.076e-17
5030.933 7.517e-17 1.074e-17
5032.02 9.135e-17 1.103e-17
5033.106 8.321e-17 1.11e-17
5034.193 5.792e-17 9.962e-18
5035.28 8.45e-17 1.094e-17
5036.367 8.859e-17 1.063e-17
5037.454 8.71e-17 1.065e-17
5038.541 6.573e-17 1.008e-17
5039.628 9.333e-17 1.085e-17
5040.714 9.142e-17 1.062e-17
5041.801 6.986e-17 1.026e-17
5042.888 1.039e-16 1.113e-17
5043.974 6.595e-17 1.022e-17
5045.061 7.956e-17 1.074e-17
5046.148 8.788e-17 1.114e-17
5047.235 8.482e-17 1.06e-17
5048.321 7.831e-17 1.022e-17
5049.408 7.581e-17 1.013e-17
5050.495 9.009e-17 1.079e-17
5051.581 6.766e-17 1.011e-17
5052.668 7.601e-17 1.039e-17
5053.755 8.603e-17 1.056e-17
5054.842 8.033e-17 1.091e-17
5055.928 9.052e-17 1.087e-17
5057.015 6.912e-17 1.049e-17
5058.101 9.025e-17 1.113e-17
5059.187 8.7e-17 1.115e-17
5060.274 8.935e-17 1.095e-17
5061.361 9.988e-17 1.144e-17
5062.448 9.247e-17 1.138e-17
5063.533 8.879e-17 1.1e-17
5064.62 8.415e-17 1.101e-17
5065.707 9.332e-17 1.129e-17
5066.793 8.027e-17 1.044e-17
5067.879 9.722e-17 1.104e-17
5068.966 1.071e-16 1.151e-17
5070.053 8.819e-17 1.092e-17
5071.138 7.348e-17 1.059e-17
5072.225 9.297e-17 1.05e-17
5073.311 7.789e-17 1.083e-17
5074.397 6.786e-17 1.033e-17
5075.484 8.709e-17 1.074e-17
5076.57 8.058e-17 1.094e-17
5077.656 8.924e-17 1.111e-17
5078.742 8.667e-17 1.12e-17
5079.829 1.011e-16 1.11e-17
5080.915 7.079e-17 1.046e-17
5082.001 8.214e-17 1.117e-17
5083.087 9.486e-17 1.105e-17
5084.173 9.609e-17 1.113e-17
5085.259 1.132e-16 1.205e-17
5086.345 8.362e-17 1.129e-17
5087.432 8.359e-17 1.078e-17
5088.518 7.215e-17 1.144e-17
5089.603 7.306e-17 1.141e-17
5090.69 6.874e-17 1.085e-17
5091.776 9.923e-17 1.137e-17
5092.861 1.038e-16 1.147e-17
5093.947 7.618e-17 1.086e-17
5095.034 1.005e-16 1.148e-17
5096.12 7.658e-17 1.081e-17
5097.205 9.113e-17 1.158e-17
5098.291 1.059e-16 1.139e-17
5099.377 1.086e-16 1.154e-17
5100.462 8.125e-17 1.128e-17
5101.549 8.159e-17 1.104e-17
5102.635 7.945e-17 1.078e-17
5103.721 7.661e-17 1.101e-17
5104.806 6.572e-17 1.081e-17
5105.892 9.027e-17 1.109e-17
5106.978 9.306e-17 1.098e-17
5108.063 7.597e-17 1.06e-17
5109.149 7.796e-17 1.081e-17
5110.235 7.163e-17 1.084e-17
5111.321 8.557e-17 1.1e-17
5112.406 7.004e-17 1.023e-17
5113.492 8.862e-17 1.106e-17
5114.578 9.834e-17 1.109e-17
5115.663 7.238e-17 1.068e-17
5116.748 7.503e-17 1.047e-17
5117.834 6.719e-17 1.048e-17
5118.92 8.902e-17 1.121e-17
5120.005 7.762e-17 1.128e-17
5121.091 9.218e-17 1.151e-17
5122.176 7.227e-17 1.044e-17
5123.261 8.899e-17 1.111e-17
5124.347 9.872e-17 1.154e-17
5125.433 8.521e-17 1.103e-17
5126.517 9.742e-17 1.116e-17
5127.603 9.257e-17 1.149e-17
5128.689 7.125e-17 1.055e-17
5129.774 8.171e-17 1.099e-17
5130.859 1.025e-16 1.165e-17
5131.944 8.163e-17 1.084e-17
5133.03 8.778e-17 1.1e-17
5134.115 7.994e-17 1.119e-17
5135.2 8.411e-17 1.117e-17
5136.286 8.245e-17 1.107e-17
5137.371 9.5e-17 1.112e-17
5138.456 6.315e-17 1.075e-17
5139.541 6.997e-17 1.031e-17
5140.626 6.674e-17 1.1e-17
5141.711 6.924e-17 1.079e-17
5142.796 6.887e-17 1.094e-17
5143.882 6.975e-17 1.076e-17
5144.967 1.061e-16 1.119e-17
5146.051 1.169e-16 1.223e-17
5147.137 8.803e-17 1.132e-17
5148.222 9.313e-17 1.113e-17
5149.306 9.596e-17 1.143e-17
5150.391 8.868e-17 1.101e-17
5151.477 9.085e-17 1.139e-17
5152.562 9.943e-17 1.182e-17
5153.646 8.288e-17 1.125e-17
5154.731 8.785e-17 1.117e-17
5155.816 8.508e-17 1.109e-17
5156.9 8.49e-17 1.15e-17
5157.985 8.994e-17 1.145e-17
5159.071 8.255e-17 1.152e-17
5160.156 9.438e-17 1.151e-17
5161.24 8.145e-17 1.098e-17
5162.325 1.244e-16 1.215e-17
5163.41 1.234e-16 1.231e-17
5164.494 7.181e-17 1.083e-17
5165.579 7.615e-17 1.087e-17
5166.664 9.676e-17 1.14e-17
5167.748 7.826e-17 1.06e-17
5168.832 7.556e-17 1.045e-17
5169.917 8.177e-17 1.045e-17
5171.002 8.386e-17 1.092e-17
5172.086 8.055e-17 1.077e-17
5173.171 6.701e-17 1.015e-17
5174.255 1.046e-16 1.097e-17
5175.339 8.433e-17 1.107e-17
5176.424 7.837e-17 1.087e-17
5177.509 1.026e-16 1.167e-17
5178.593 7.741e-17 1.129e-17
5179.677 7.491e-17 1.078e-17
5180.762 5.631e-17 1.015e-17
5181.846 6.965e-17 1.038e-17
5182.93 8.618e-17 1.076e-17
5184.014 8.593e-17 1.049e-17
5185.099 7.207e-17 1.095e-17
5186.184 8.616e-17 1.09e-17
5187.267 7.979e-17 1.13e-17
5188.352 8.264e-17 1.122e-17
5189.436 7.524e-17 1.072e-17
5190.519 8.036e-17 1.149e-17
5191.604 7.833e-17 1.131e-17
5192.688 8.205e-17 1.139e-17
5193.773 7.615e-17 1.075e-17
5194.856 8.732e-17 1.09e-17
5195.94 8.289e-17 1.111e-17
5197.025 7.6e-17 1.1e-17
5198.108 1.061e-16 1.235e-17
5199.192 6.882e-17 1.055e-17
5200.276 8.889e-17 1.163e-17
5201.361 7.877e-17 1.156e-17
5202.444 6.4e-17 1.09e-17
5203.528 9.232e-17 1.166e-17
5204.612 7.838e-17 1.164e-17
5205.695 8.24e-17 1.143e-17
5206.779 9.717e-17 1.179e-17
5207.864 7.878e-17 1.171e-17
5208.948 7.705e-17 1.134e-17
5210.031 5.873e-17 1.046e-17
5211.115 8.02e-17 1.103e-17
5212.199 8.342e-17 1.169e-17
5213.282 7.511e-17 1.101e-17
5214.366 9.114e-17 1.183e-17
5215.449 8.126e-17 1.139e-17
5216.533 8.84e-17 1.165e-17
5217.616 7.55e-17 1.127e-17
5218.7 6.877e-17 1.118e-17
5219.784 7.592e-17 1.101e-17
5220.867 8.967e-17 1.206e-17
5221.951 7.413e-17 1.092e-17
5223.034 8.968e-17 1.185e-17
5224.118 9.777e-17 1.191e-17
5225.201 8.789e-17 1.211e-17
5226.284 7.412e-17 1.097e-17
5227.368 9.254e-17 1.174e-17
5228.451 1.038e-16 1.182e-17
5229.534 7.652e-17 1.108e-17
5230.618 7.213e-17 1.089e-17
5231.7 5.283e-17 1.043e-17
5232.784 8.513e-17 1.113e-17
5233.868 7.184e-17 1.08e-17
5234.951 6.326e-17 1.048e-17
5236.033 7.788e-17 1.145e-17
5237.117 1.05e-16 1.272e-17
5238.2 8.288e-17 1.158e-17
5239.283 9.222e-17 1.158e-17
5240.366 9.079e-17 1.231e-17
5241.449 8.302e-17 1.195e-17
5242.533 9.645e-17 1.175e-17
5243.615 9.176e-17 1.178e-17
5244.698 7.168e-17 1.106e-17
5245.782 5.957e-17 1.093e-17
5246.864 8.708e-17 1.132e-17
5247.947 5.311e-17 1.025e-17
5249.03 9.657e-17 1.15e-17
5250.113 1.028e-16 1.202e-17
5251.195 7.76e-17 1.105e-17
5252.279 9.209e-17 1.436e-17
5253.362 6.828e-17 1.33e-17
5254.444 5.555e-17 1.309e-17
5255.527 8.228e-17 1.379e-17
5256.61 7.674e-17 1.392e-17
5257.693 7.402e-17 1.424e-17
5258.775 9.606e-17 1.458e-17
5259.858 7.876e-17 1.382e-17
5260.941 7.925e-17 1.373e-17
5262.022 7.65e-17 1.366e-17
5263.105 9.477e-17 1.345e-17
5264.188 9.204e-17 1.403e-17
5265.271 5.658e-17 1.302e-17
5266.353 9.108e-17 1.348e-17
5267.435 8.617e-17 1.326e-17
5268.518 7.507e-17 1.316e-17
5269.6 6.742e-17 1.305e-17
5270.682 6.996e-17 1.281e-17
5271.765 7.161e-17 1.29e-17
5272.848 8.996e-17 1.401e-17
5273.929 8.236e-17 1.386e-17
5275.012 8.696e-17 1.413e-17
5276.094 8.924e-17 1.397e-17
5277.176 8.636e-17 1.382e-17
5278.258 8.306e-17 1.36e-17
5279.341 8.578e-17 1.367e-17
5280.423 8.072e-17 1.382e-17
5281.505 6.455e-17 1.352e-17
5282.587 7.908e-17 1.408e-17
5283.669 6.074e-17 1.339e-17
5284.751 8.046e-17 1.419e-17
5285.833 5.43e-17 1.25e-17
5286.915 7.467e-17 1.41e-17
5287.997 7.968e-17 1.392e-17
5289.079 5.94e-17 1.278e-17
5290.161 6.861e-17 1.341e-17
5291.243 8.554e-17 1.438e-17
5292.324 6.837e-17 1.385e-17
5293.407 8.45e-17 1.434e-17
5294.489 6.497e-17 1.347e-17
5295.57 6.931e-17 1.459e-17
5296.652 7.025e-17 1.36e-17
5297.734 7.001e-17 1.392e-17
5298.816 7.797e-17 1.374e-17
5299.897 8.348e-17 1.415e-17
5300.979 9.034e-17 1.47e-17
5302.061 6.1e-17 1.389e-17
5303.141 5.882e-17 1.303e-17
5304.223 8.46e-17 1.518e-17
5305.305 7.267e-17 1.451e-17
5306.387 1.03e-16 1.56e-17
5307.468 6.313e-17 1.338e-17
5308.549 7.934e-17 1.402e-17
5309.631 8.998e-17 1.582e-17
5310.712 7.899e-17 1.469e-17
5311.793 7.288e-17 1.441e-17
5312.875 8.179e-17 1.439e-17
5313.957 7.511e-17 1.442e-17
5315.037 8.995e-17 1.498e-17
5316.119 7.645e-17 1.475e-17
5317.2 6.799e-17 1.473e-17
5318.281 6.315e-17 1.423e-17
5319.362 6.979e-17 1.429e-17
5320.444 7.152e-17 1.524e-17
5321.525 7.328e-17 1.556e-17
5322.606 9.561e-17 1.566e-17
5323.687 9.647e-17 1.578e-17
5324.768 7.617e-17 1.495e-17
5325.849 8.1e-17 1.564e-17
5326.93 7.624e-17 1.494e-17
5328.011 7.912e-17 1.546e-17
5329.092 7.977e-17 1.518e-17
5330.172 6.919e-17 1.518e-17
5331.254 7.396e-17 1.539e-17
5332.335 7.478e-17 1.559e-17
5333.415 8.401e-17 1.591e-17
5334.496 8.406e-17 1.483e-17
5335.577 7.275e-17 1.532e-17
5336.658 7.737e-17 1.522e-17
5337.738 7.614e-17 1.42e-17
5338.819 7.108e-17 1.454e-17
5339.9 5.164e-17 1.407e-17
5340.98 7.94e-17 1.485e-17
5342.061 8.591e-17 1.589e-17
5343.142 7.043e-17 1.522e-17
5344.221 8.536e-17 1.54e-17
5345.302 9.996e-17 1.589e-17
5346.383 7.029e-17 1.461e-17
5347.464 8.887e-17 1.609e-17
5348.543 6.942e-17 1.483e-17
5349.624 8.418e-17 1.535e-17
5350.705 8.303e-17 1.511e-17
5351.784 7.165e-17 1.526e-17
5352.865 5.366e-17 1.364e-17
5353.945 8.304e-17 1.488e-17
5355.026 9.773e-17 1.608e-17
5356.105 6.604e-17 1.439e-17
5357.186 6.603e-17 1.434e-17
5358.266 8.086e-17 1.611e-17
5359.346 5.693e-17 1.43e-17
5360.426 7.985e-17 1.529e-17
5361.507 6.916e-17 1.51e-17
5362.587 5.809e-17 1.401e-17
5363.666 7.173e-17 1.507e-17
5364.746 6.657e-17 1.439e-17
5365.827 7.559e-17 1.462e-17
5366.906 6.764e-17 1.461e-17
5367.986 6.96e-17 1.466e-17
5369.066 5.462e-17 1.303e-17
5370.146 8.256e-17 1.493e-17
5371.225 6.748e-17 1.482e-17
5372.305 8.291e-17 1.515e-17
5373.385 7.992e-17 1.477e-17
5374.464 7.015e-17 1.392e-17
5375.544 7.708e-17 1.456e-17
5376.624 6.417e-17 1.455e-17
5377.704 5.988e-17 1.41e-17
5378.783 5.615e-17 1.462e-17
5379.863 8.218e-17 1.464e-17
5380.943 8.823e-17 1.494e-17
5382.022 7.517e-17 1.483e-17
5383.101 8.598e-17 1.43e-17
5384.181 7.625e-17 1.438e-17
5385.261 7.015e-17 1.439e-17
5386.339 6.946e-17 1.418e-17
5387.419 7.249e-17 1.431e-17
5388.499 8.317e-17 1.469e-17
5389.577 7.461e-17 1.422e-17
5390.657 6.681e-17 1.404e-17
5391.736 7.555e-17 1.409e-17
5392.816 6.844e-17 1.348e-17
5393.894 6.45e-17 1.414e-17
5394.974 8.066e-17 1.454e-17
5396.053 6.977e-17 1.387e-17
5397.131 7.603e-17 1.377e-17
5398.211 5.905e-17 1.365e-17
5399.29 6.224e-17 1.342e-17
5400.369 6.698e-17 1.353e-17
5401.447 8.419e-17 1.421e-17
5402.527 7.338e-17 1.351e-17
5403.606 7.29e-17 1.382e-17
5404.684 7.156e-17 1.398e-17
5405.763 7.233e-17 1.341e-17
5406.842 6.609e-17 1.329e-17
5407.92 6.992e-17 1.371e-17
5408.999 6.909e-17 1.339e-17
5410.078 7.231e-17 1.361e-17
5411.157 6.362e-17 1.343e-17
5412.235 7.486e-17 1.364e-17
5413.314 5.325e-17 1.331e-17
5414.393 7.919e-17 1.389e-17
5415.471 7.52e-17 1.33e-17
5416.549 5.338e-17 1.307e-17
5417.628 7.053e-17 1.372e-17
5418.707 7.144e-17 1.372e-17
5419.785 5.851e-17 1.323e-17
5420.863 5.383e-17 1.288e-17
5421.942 6.507e-17 1.286e-17
5423.019 5.804e-17 1.277e-17
5424.098 6.603e-17 1.326e-17
5425.177 5.933e-17 1.323e-17
5426.255 6.945e-17 1.366e-17
5427.333 6.797e-17 1.351e-17
5428.411 8.025e-17 1.341e-17
5429.489 7.396e-17 1.323e-17
5430.567 5.879e-17 1.277e-17
5431.645 6.198e-17 1.304e-17
5432.723 7.36e-17 1.315e-17
5433.802 7.933e-17 1.348e-17
5434.879 7.215e-17 1.353e-17
5435.957 6.64e-17 1.316e-17
5437.035 6.333e-17 1.287e-17
5438.112 6.414e-17 1.314e-17
5439.191 5.259e-17 1.269e-17
5440.269 5.954e-17 1.28e-17
5441.347 5.997e-17 1.288e-17
5442.424 6.221e-17 1.311e-17
5443.502 6.47e-17 1.349e-17
5444.58 7.124e-17 1.328e-17
5445.657 8.027e-17 1.325e-17
5446.734 7.233e-17 1.336e-17
5447.812 7.097e-17 1.353e-17
5448.89 5.493e-17 1.324e-17
5449.967 6.074e-17 1.297e-17
5451.045 8.06e-17 1.332e-17
5452.122 8.237e-17 1.345e-17
5453.199 8.517e-17 1.386e-17
5454.277 7.856e-17 1.353e-17
5455.354 5.994e-17 1.284e-17
5456.432 5.378e-17 1.299e-17
5457.508 5.425e-17 1.317e-17
5458.586 5.792e-17 1.368e-17
5459.663 4.765e-17 1.358e-17
5460.74 4.926e-17 1.404e-17
5461.817 7.158e-17 1.443e-17
5462.895 6.364e-17 1.42e-17
5463.972 6.099e-17 1.37e-17
5465.048 5.861e-17 1.325e-17
5466.126 6.181e-17 1.34e-17
5467.203 5.84e-17 1.33e-17
5468.279 7.47e-17 1.326e-17
5469.356 6.024e-17 1.327e-17
5470.433 6.326e-17 1.346e-17
5471.51 6.617e-17 1.334e-17
5472.587 6.495e-17 1.321e-17
5473.664 6.747e-17 1.348e-17
5474.741 6.808e-17 1.346e-17
5475.817 7.514e-17 1.357e-17
5476.894 5.6e-17 1.269e-17
5477.97 4.842e-17 1.261e-17
5479.047 6.861e-17 1.356e-17
5480.123 6.646e-17 1.316e-17
5481.2 6.024e-17 1.267e-17
5482.277 6.789e-17 1.324e-17
5483.352 6.058e-17 1.328e-17
5484.429 7.076e-17 1.334e-17
5485.506 5.726e-17 1.285e-17
5486.581 7.16e-17 1.323e-17
5487.658 6.83e-17 1.355e-17
5488.735 6.884e-17 1.321e-17
5489.811 7.063e-17 1.295e-17
5490.887 7.891e-17 1.316e-17
5491.963 7.595e-17 1.322e-17
5493.039 6.31e-17 1.275e-17
5494.115 6.933e-17 1.297e-17
5495.191 5.916e-17 1.277e-17
5496.267 6.16e-17 1.249e-17
5497.344 6.363e-17 1.229e-17
5498.419 7.586e-17 1.288e-17
5499.495 7.265e-17 1.257e-17
5500.571 7.514e-17 1.247e-17
5501.647 7.025e-17 1.278e-17
5502.723 6.02e-17 1.261e-17
5503.799 6.067e-17 1.213e-17
5504.875 6.295e-17 1.196e-17
5505.95 6.721e-17 1.224e-17
5507.026 6.112e-17 1.195e-17
5508.102 6.376e-17 1.197e-17
5509.176 6.405e-17 1.21e-17
5510.252 6.824e-17 1.23e-17
5511.328 6.094e-17 1.227e-17
5512.404 6.487e-17 1.212e-17
5513.479 7.378e-17 1.207e-17
5514.554 6.788e-17 1.17e-17
5515.63 6.253e-17 1.167e-17
5516.705 6.886e-17 1.205e-17
5517.78 7.324e-17 1.198e-17
5518.856 6.92e-17 1.157e-17
5519.931 6.267e-17 1.15e-17
5521.006 6.735e-17 1.188e-17
5522.081 7.022e-17 1.156e-17
5523.157 6.077e-17 1.087e-17
5524.231 5.297e-17 1.063e-17
5525.306 6.16e-17 1.091e-17
5526.382 6.516e-17 1.126e-17
5527.457 6.169e-17 1.131e-17
5528.531 5.409e-17 1.081e-17
5529.607 4.975e-17 1.081e-17
5530.682 6.047e-17 1.109e-17
5531.756 6.013e-17 1.102e-17
5532.831 6.337e-17 1.09e-17
5533.906 6.683e-17 1.091e-17
5534.981 7.139e-17 1.1e-17
5536.055 7.441e-17 1.097e-17
5537.13 7.242e-17 1.082e-17
5538.205 6.292e-17 1.053e-17
5539.279 5.342e-17 1.037e-17
5540.354 6.258e-17 1.062e-17
5541.428 7.436e-17 1.097e-17
5542.503 7.349e-17 1.103e-17
5543.577 6.438e-17 1.077e-17
5544.651 6.008e-17 1.046e-17
5545.726 6.867e-17 1.035e-17
5546.8 7.65e-17 1.06e-17
5547.874 7.178e-17 1.083e-17
5548.949 7.201e-17 1.068e-17
5550.023 6.817e-17 1.038e-17
5551.097 6.615e-17 1.026e-17
5552.171 6.582e-17 1.036e-17
5553.246 7.12e-17 1.048e-17
5554.319 7.034e-17 1.035e-17
5555.393 6.122e-17 1.006e-17
5556.468 5.416e-17 9.729e-18
5557.542 5.993e-17 9.7e-18
5558.615 6.954e-17 1.012e-17
5559.689 6.7e-17 1.022e-17
5560.763 5.615e-17 9.874e-18
5561.836 5.687e-17 9.792e-18
5562.91 5.173e-17 9.65e-18
5563.984 4.508e-17 9.612e-18
5565.058 5.652e-17 9.996e-18
5566.131 6.279e-17 1.006e-17
5567.205 5.705e-17 1.021e-17
5568.279 6.761e-17 1.012e-17
5569.352 6.085e-17 9.809e-18
5570.426 4.802e-17 9.954e-18
5571.499 5.902e-17 1.08e-17
5572.573 6.586e-17 1.304e-17
5573.646 8.218e-17 1.492e-17
5574.719 8.53e-17 1.578e-17
5575.793 8.921e-17 1.576e-17
5576.866 8.08e-17 1.589e-17
5577.939 7.035e-17 1.536e-17
5579.013 7.466e-17 1.375e-17
5580.086 6.21e-17 1.282e-17
5581.158 6.167e-17 1.179e-17
5582.232 6.305e-17 1.174e-17
5583.305 7.619e-17 1.185e-17
5583.563 6.162e-17 9.147e-18
5585.081 6.967e-17 8.687e-18
5586.6 5.475e-17 8.452e-18
5588.118 5.44e-17 8.053e-18
5589.637 5.865e-17 8.172e-18
5591.156 6.328e-17 8.171e-18
5592.674 5.13e-17 7.825e-18
5594.194 4.225e-17 7.54e-18
5595.712 4.951e-17 7.547e-18
5597.231 6.626e-17 7.908e-18
5598.75 5.497e-17 7.683e-18
5600.269 5.599e-17 7.912e-18
5601.788 5.897e-17 8.022e-18
5603.306 6.395e-17 7.898e-18
5604.826 5.169e-17 7.477e-18
5606.344 5.901e-17 7.66e-18
5607.864 6.151e-17 7.69e-18
5609.383 6.296e-17 7.738e-18
5610.901 5.709e-17 7.663e-18
5612.421 5.623e-17 7.573e-18
5613.94 6.089e-17 7.703e-18
5615.459 6.715e-17 7.586e-18
5616.979 5.765e-17 7.794e-18
5618.497 6.347e-17 7.794e-18
5620.017 6.357e-17 7.525e-18
5621.536 6.144e-17 7.727e-18
5623.055 6.293e-17 7.446e-18
5624.575 5.217e-17 7.305e-18
5626.094 6.193e-17 7.478e-18
5627.613 5.584e-17 7.377e-18
5629.132 6.298e-17 7.447e-18
5630.652 5.722e-17 7.639e-18
5632.172 6.087e-17 7.32e-18
5633.691 5.91e-17 7.405e-18
5635.211 5.92e-17 7.459e-18
5636.73 6.003e-17 7.486e-18
5638.249 5.254e-17 7.389e-18
5639.769 6.354e-17 7.731e-18
5641.288 6.344e-17 7.668e-18
5642.808 5.16e-17 7.494e-18
5644.327 6.275e-17 7.927e-18
5645.848 6.536e-17 7.75e-18
5647.368 5.126e-17 7.633e-18
5648.887 5.84e-17 7.659e-18
5650.407 5.896e-17 7.843e-18
5651.926 7.107e-17 7.748e-18
5653.446 5.581e-17 7.45e-18
5654.965 6.417e-17 7.567e-18
5656.486 6.928e-17 7.82e-18
5658.006 6.259e-17 7.644e-18
5659.525 7.141e-17 7.709e-18
5661.045 6.072e-17 7.512e-18
5662.565 6.55e-17 7.423e-18
5664.085 5.223e-17 7.432e-18
5665.606 4.908e-17 7.438e-18
5667.125 5.582e-17 7.605e-18
5668.645 6.715e-17 7.494e-18
5670.165 5.943e-17 7.316e-18
5671.685 5.769e-17 7.642e-18
5673.206 6.147e-17 7.554e-18
5674.725 5.209e-17 7.204e-18
5676.246 6.566e-17 7.627e-18
5677.766 7.075e-17 7.774e-18
5679.286 5.753e-17 7.358e-18
5680.807 5.361e-17 7.336e-18
5682.326 6.072e-17 7.634e-18
5683.847 6.455e-17 7.487e-18
5685.367 5.363e-17 7.307e-18
5686.888 6.987e-17 7.828e-18
5688.408 5.989e-17 7.505e-18
5689.928 6.657e-17 7.531e-18
5691.449 6.317e-17 7.613e-18
5692.969 5.592e-17 7.376e-18
5694.49 5.595e-17 7.161e-18
5696.011 7.994e-17 7.605e-18
5697.53 7.714e-17 7.406e-18
5699.051 5.219e-17 6.988e-18
5700.571 6.029e-17 7.151e-18
5702.092 6.05e-17 7.221e-18
5703.612 5.633e-17 6.943e-18
5705.133 5.17e-17 6.829e-18
5706.654 5.594e-17 6.929e-18
5708.175 5.547e-17 6.757e-18
5709.696 5.673e-17 6.831e-18
5711.216 5.133e-17 6.829e-18
5712.737 7.393e-17 7.23e-18
5714.258 6.288e-17 7.047e-18
5715.778 6.11e-17 7.156e-18
5717.3 5.694e-17 6.694e-18
5718.82 5.036e-17 6.8e-18
5720.341 5.373e-17 6.863e-18
5721.862 6.664e-17 7.053e-18
5723.383 5.003e-17 6.794e-18
5724.904 7.189e-17 7.076e-18
5726.424 4.819e-17 6.7e-18
5727.946 6.551e-17 7.136e-18
5729.467 4.808e-17 6.512e-18
5730.988 5.645e-17 6.606e-18
5732.509 5.803e-17 6.679e-18
5734.03 4.702e-17 6.576e-18
5735.551 6.298e-17 6.831e-18
5737.073 6.339e-17 6.704e-18
5738.593 5.184e-17 6.66e-18
5740.115 5.605e-17 6.755e-18
5741.636 5.522e-17 6.628e-18
5743.157 6.531e-17 6.862e-18
5744.678 4.806e-17 6.524e-18
5746.2 5.853e-17 6.658e-18
5747.721 5.05e-17 6.426e-18
5749.242 3.225e-17 6.492e-18
5750.764 4.753e-17 6.418e-18
5752.285 5.164e-17 6.41e-18
5753.806 7.452e-17 7.079e-18
5755.328 8.779e-17 7.18e-18
5756.849 7.453e-17 7.162e-18
5758.371 5.578e-17 6.758e-18
5759.892 5.847e-17 6.87e-18
5761.414 6.42e-17 6.715e-18
5762.936 6.093e-17 6.768e-18
5764.457 5.661e-17 6.758e-18
5765.979 6.209e-17 6.773e-18
5767.5 6.281e-17 7.047e-18
5769.022 7.07e-17 7.212e-18
5770.544 4.773e-17 6.7e-18
5772.065 6.989e-17 7.07e-18
5773.587 6.734e-17 6.907e-18
5775.108 5.854e-17 6.734e-18
5776.631 5.501e-17 6.744e-18
5778.153 6.133e-17 6.749e-18
5779.674 5.05e-17 6.502e-18
5781.196 5.626e-17 6.532e-18
5782.717 5.153e-17 6.447e-18
5784.24 6.254e-17 6.709e-18
5785.762 6.814e-17 6.885e-18
5787.283 6.153e-17 6.732e-18
5788.806 4.425e-17 6.558e-18
5790.327 5.838e-17 6.779e-18
5791.85 6.818e-17 6.957e-18
5793.371 5.75e-17 6.635e-18
5794.894 5.386e-17 6.545e-18
5796.416 6.133e-17 6.759e-18
5797.938 5.528e-17 6.658e-18
5799.46 5.446e-17 6.474e-18
5800.982 5.842e-17 6.614e-18
5802.504 5.259e-17 6.382e-18
5804.027 4.967e-17 6.427e-18
5805.548 5.381e-17 6.464e-18
5807.071 5.818e-17 6.381e-18
5808.593 5.365e-17 6.52e-18
5810.116 5.967e-17 6.575e-18
5811.638 4.888e-17 6.278e-18
5813.16 6.491e-17 6.567e-18
5814.683 5.603e-17 6.518e-18
5816.205 5.219e-17 6.517e-18
5817.727 5.837e-17 6.393e-18
5819.25 5.562e-17 6.632e-18
5820.772 6.314e-17 6.467e-18
5822.295 6.493e-17 6.586e-18
5823.817 4.829e-17 6.383e-18
5825.34 6.342e-17 6.457e-18
5826.862 5.379e-17 6.374e-18
5828.385 6.189e-17 6.576e-18
5829.908 5.388e-17 6.357e-18
5831.43 6.154e-17 6.495e-18
5832.953 6.206e-17 6.573e-18
5834.475 5.357e-17 6.359e-18
5835.998 6.109e-17 6.433e-18
5837.521 6.454e-17 6.701e-18
5839.044 6.588e-17 6.581e-18
5840.567 5.963e-17 6.581e-18
5842.089 4.386e-17 6.321e-18
5843.612 6.202e-17 6.448e-18
5845.135 4.857e-17 6.143e-18
5846.658 6.025e-17 6.556e-18
5848.181 6.309e-17 6.628e-18
5849.703 6.471e-17 6.61e-18
5851.227 5.558e-17 6.515e-18
5852.75 6.37e-17 6.553e-18
5854.272 5.958e-17 6.402e-18
5855.796 6.241e-17 6.593e-18
5857.318 5.155e-17 6.406e-18
5858.842 5.883e-17 6.429e-18
5860.365 4.821e-17 6.465e-18
5861.888 5.761e-17 6.855e-18
5863.411 6.183e-17 6.717e-18
5864.934 5.724e-17 6.791e-18
5866.457 5.085e-17 6.591e-18
5867.98 5.302e-17 6.894e-18
5869.504 5.278e-17 6.68e-18
5871.027 6.132e-17 6.854e-18
5872.55 5.314e-17 6.645e-18
5874.074 6.226e-17 6.631e-18
5875.596 7.525e-17 6.963e-18
5877.12 5.253e-17 6.47e-18
5878.644 3.606e-17 6.103e-18
5880.167 5.267e-17 6.5e-18
5881.691 5.87e-17 6.844e-18
5883.213 6.055e-17 6.921e-18
5884.737 4.551e-17 7.396e-18
5886.261 4.306e-17 8.119e-18
5887.784 3.653e-17 8.486e-18
5889.308 3.824e-17 8.71e-18
5890.831 6.297e-17 9.191e-18
5892.355 5.178e-17 8.79e-18
5893.879 3.885e-17 8.412e-18
5895.402 5.919e-17 8.613e-18
5896.926 6.159e-17 8.054e-18
5898.449 4.957e-17 7.133e-18
5899.973 5.028e-17 7.042e-18
5901.497 6.521e-17 6.684e-18
5903.02 6.225e-17 6.571e-18
5904.545 5.918e-17 6.53e-18
5906.068 7.464e-17 6.822e-18
5907.592 5.626e-17 6.484e-18
5909.115 7.025e-17 6.682e-18
5910.64 6.153e-17 6.701e-18
5912.164 5.877e-17 6.563e-18
5913.687 5.03e-17 6.562e-18
5915.211 5.926e-17 6.777e-18
5916.735 5.68e-17 6.405e-18
5918.259 5.212e-17 6.451e-18
5919.784 6.267e-17 6.681e-18
5921.307 6.569e-17 6.669e-18
5922.831 5.564e-17 6.389e-18
5924.355 4.788e-17 6.279e-18
5925.879 6.072e-17 6.472e-18
5927.404 5.669e-17 6.564e-18
5928.927 7.144e-17 6.884e-18
5930.452 5.924e-17 6.774e-18
5931.976 5.246e-17 6.578e-18
5933.5 5.412e-17 6.71e-18
5935.025 5.338e-17 6.454e-18
5936.548 6.331e-17 6.443e-18
5938.073 5.096e-17 6.308e-18
5939.597 5.572e-17 6.318e-18
5941.122 5.836e-17 6.417e-18
5942.645 5.366e-17 6.403e-18
5944.17 6.504e-17 6.477e-18
5945.695 5.29e-17 6.209e-18
5947.219 6.083e-17 6.263e-18
5948.743 6.05e-17 6.37e-18
5950.267 5.758e-17 6.313e-18
5951.792 5.022e-17 6.396e-18
5953.317 5.533e-17 6.339e-18
5954.841 7.014e-17 6.63e-18
5956.366 5.007e-17 6.167e-18
5957.89 5.295e-17 6.234e-18
5959.415 5.257e-17 6.163e-18
5960.94 5.735e-17 6.118e-18
5962.464 6.279e-17 6.284e-18
5963.989 5.697e-17 6.177e-18
5965.513 5.947e-17 6.226e-18
5967.038 6.441e-17 6.448e-18
5968.563 5.472e-17 6.327e-18
5970.088 4.788e-17 6.146e-18
5971.613 5.235e-17 6.243e-18
5973.137 5.482e-17 6.231e-18
5974.662 5.503e-17 6.167e-18
5976.186 5.991e-17 6.402e-18
5977.712 5.608e-17 6.351e-18
5979.237 5.62e-17 6.106e-18
5980.761 5.173e-17 6.303e-18
5982.287 4.861e-17 6.04e-18
5983.811 5.223e-17 6.154e-18
5985.336 5.256e-17 6.067e-18
5986.862 6.586e-17 6.243e-18
5988.386 6.595e-17 6.233e-18
5989.912 5.334e-17 6.09e-18
5991.436 5.746e-17 6.269e-18
5992.962 5.232e-17 6.146e-18
5994.487 5.783e-17 6.102e-18
5996.012 5.799e-17 6.187e-18
5997.537 6.223e-17 6.352e-18
5999.062 5.499e-17 6.27e-18
6000.587 4.675e-17 6.037e-18
6002.113 5.868e-17 6.163e-18
6003.638 4.924e-17 6.105e-18
6005.163 6.458e-17 6.387e-18
6006.688 5.265e-17 6.191e-18
6008.214 4.764e-17 5.985e-18
6009.739 5.944e-17 6.211e-18
6011.264 5.425e-17 6.04e-18
6012.79 6.268e-17 6.193e-18
6014.315 6.029e-17 6.131e-18
6015.841 6.087e-17 6.169e-18
6017.365 4.715e-17 6.055e-18
6018.891 4.931e-17 5.94e-18
6020.417 6.123e-17 6.132e-18
6021.942 5.685e-17 6.157e-18
6023.468 5.391e-17 6.088e-18
6024.993 6.184e-17 6.161e-18
6026.519 5.882e-17 6.172e-18
6028.045 6.1e-17 6.195e-18
6029.57 5.295e-17 5.968e-18
6031.096 5.373e-17 6.005e-18
6032.621 4.194e-17 5.775e-18
6034.147 6.04e-17 6.328e-18
6035.673 6.001e-17 6.121e-18
6037.198 5.217e-17 6.09e-18
6038.725 5.493e-17 5.944e-18
6040.25 5.147e-17 6.107e-18
6041.776 6.632e-17 6.264e-18
6043.302 5.706e-17 6.008e-18
6044.828 5.269e-17 6.056e-18
6046.354 5.549e-17 6e-18
6047.879 6.153e-17 6.089e-18
6049.405 5.014e-17 5.908e-18
6050.931 4.977e-17 6.115e-18
6052.457 6.232e-17 6.008e-18
6053.983 6.013e-17 6.047e-18
6055.509 5.896e-17 6.103e-18
6057.035 5.623e-17 6.034e-18
6058.561 4.418e-17 5.814e-18
6060.087 5.485e-17 5.784e-18
6061.614 5.899e-17 6.135e-18
6063.139 5.048e-17 6.033e-18
6064.666 5.092e-17 5.765e-18
6066.191 6.158e-17 6.098e-18
6067.718 4.875e-17 5.998e-18
6069.245 5.971e-17 6.081e-18
6070.77 6.221e-17 6.005e-18
6072.297 6.135e-17 6.133e-18
6073.822 5.721e-17 5.958e-18
6075.349 4.913e-17 5.689e-18
6076.876 5.21e-17 5.88e-18
6078.402 5.798e-17 6.003e-18
6079.928 5.238e-17 5.862e-18
6081.454 6.384e-17 6.192e-18
6082.981 5.446e-17 5.887e-18
6084.507 6.147e-17 5.851e-18
6086.034 5.639e-17 5.925e-18
6087.56 5.679e-17 5.894e-18
6089.086 6.223e-17 6.123e-18
6090.613 4.992e-17 5.881e-18
6092.139 5.216e-17 5.865e-18
6093.666 4.199e-17 5.572e-18
6095.193 6.062e-17 6.141e-18
6096.719 5.002e-17 5.79e-18
6098.246 5.578e-17 5.899e-18
6099.772 5.211e-17 5.829e-18
6101.299 4.775e-17 5.757e-18
6102.826 4.68e-17 5.664e-18
6104.352 5.767e-17 6.014e-18
6105.879 4.685e-17 5.792e-18
6107.406 5.917e-17 5.799e-18
6108.933 4.928e-17 5.951e-18
6110.459 5.806e-17 5.952e-18
6111.986 4.378e-17 5.851e-18
6113.513 5.132e-17 5.723e-18
6115.04 5.945e-17 5.993e-18
6116.567 4.885e-17 5.544e-18
6118.093 4.642e-17 5.72e-18
6119.621 5.974e-17 5.756e-18
6121.148 6.092e-17 5.93e-18
6122.674 5.088e-17 5.73e-18
6124.202 6.101e-17 5.872e-18
6125.728 4.986e-17 5.73e-18
6127.256 6.014e-17 5.934e-18
6128.783 4.512e-17 5.312e-18
6130.309 4.228e-17 5.537e-18
6131.837 5.604e-17 5.638e-18
6133.363 4.832e-17 5.554e-18
6134.891 5.628e-17 5.782e-18
6136.419 4.747e-17 5.698e-18
6137.945 4.656e-17 5.735e-18
6139.473 5.395e-17 5.738e-18
6140.999 4.531e-17 5.561e-18
6142.527 4.951e-17 5.663e-18
6144.054 5.097e-17 5.638e-18
6145.581 5.235e-17 5.658e-18
6147.109 4.923e-17 5.465e-18
6148.636 4.534e-17 5.443e-18
6150.163 5.14e-17 5.51e-18
6151.69 4.562e-17 5.464e-18
6153.218 4.692e-17 5.579e-18
6154.746 4.923e-17 5.39e-18
6156.273 5.036e-17 5.598e-18
6157.801 5.188e-17 5.569e-18
6159.327 5.729e-17 5.65e-18
6160.855 4.443e-17 5.438e-18
6162.383 5.873e-17 5.806e-18
6163.91 4.939e-17 5.412e-18
6165.438 5.182e-17 5.566e-18
6166.965 5.195e-17 5.525e-18
6168.493 5.448e-17 5.715e-18
6170.021 5.562e-17 5.648e-18
6171.548 4.572e-17 5.537e-18
6173.076 4.442e-17 5.378e-18
6174.603 4.357e-17 5.216e-18
6176.131 4.67e-17 5.399e-18
6177.659 5.652e-17 5.476e-18
6179.187 4.845e-17 5.285e-18
6180.715 4.51e-17 5.302e-18
6182.242 4.755e-17 5.358e-18
6183.77 4.717e-17 5.36e-18
6185.298 4.703e-17 5.196e-18
6186.826 4.346e-17 5.272e-18
6188.354 4.863e-17 5.304e-18
6189.881 6.019e-17 5.531e-18
6191.41 4.198e-17 5.332e-18
6192.937 5.622e-17 5.4e-18
6194.465 5.285e-17 5.518e-18
6195.994 5.193e-17 5.416e-18
6197.521 5.227e-17 5.374e-18
6199.05 4.458e-17 5.437e-18
6200.577 3.734e-17 5.245e-18
6202.105 4.771e-17 5.388e-18
6203.634 6.064e-17 5.503e-18
6205.161 3.674e-17 5.162e-18
6206.69 5.348e-17 5.489e-18
6208.218 4.712e-17 5.268e-18
6209.746 4.463e-17 5.436e-18
6211.274 4.869e-17 5.212e-18
6212.802 4.418e-17 5.348e-18
6214.331 4.641e-17 5.236e-18
6215.859 4.96e-17 5.324e-18
6217.387 4.74e-17 5.432e-18
6218.915 6.263e-17 5.79e-18
6220.444 5.662e-17 5.725e-18
6221.972 5.825e-17 5.67e-18
6223.5 6.005e-17 5.636e-18
6225.029 4.835e-17 5.262e-18
6226.557 4.992e-17 5.424e-18
6228.086 5.97e-17 5.519e-18
6229.614 5.319e-17 5.536e-18
6231.142 5.147e-17 5.692e-18
6232.671 4.393e-17 5.803e-18
6234.199 5.865e-17 6.039e-18
6235.728 4.928e-17 5.88e-18
6237.256 5.878e-17 5.998e-18
6238.785 4.214e-17 5.649e-18
6240.314 4.456e-17 5.57e-18
6241.842 6.449e-17 5.799e-18
6243.371 5.341e-17 5.555e-18
6244.899 4.787e-17 5.411e-18
6246.428 4.717e-17 5.454e-18
6247.957 4.422e-17 5.247e-18
6249.485 4.703e-17 5.209e-18
6251.014 5.125e-17 5.433e-18
6252.543 4.653e-17 5.227e-18
6254.072 4.918e-17 5.786e-18
6255.601 4.579e-17 5.848e-18
6257.129 4.255e-17 5.552e-18
6258.658 5.205e-17 5.553e-18
6260.187 5.389e-17 5.648e-18
6261.716 5.1e-17 5.515e-18
6263.245 4.758e-17 5.612e-18
6264.773 5.315e-17 5.41e-18
6266.303 4.487e-17 5.311e-18
6267.831 3.966e-17 5.195e-18
6269.361 4.511e-17 5.208e-18
6270.889 4.756e-17 5.149e-18
6272.418 3.749e-17 5.135e-18
6273.948 5.549e-17 5.564e-18
6275.476 4.562e-17 5.613e-18
6277.006 4.538e-17 5.381e-18
6278.534 4.989e-17 5.489e-18
6280.064 5.791e-17 5.685e-18
6281.593 5.017e-17 5.375e-18
6283.122 5.186e-17 5.567e-18
6284.651 4.191e-17 5.715e-18
6286.18 5.109e-17 5.741e-18
6287.71 4.15e-17 5.402e-18
6289.239 5.605e-17 5.567e-18
6290.768 4.68e-17 5.273e-18
6292.298 4.446e-17 5.168e-18
6293.826 4.796e-17 5.701e-18
6295.356 5.106e-17 6.986e-18
6296.885 5.084e-17 8.345e-18
6298.414 5.208e-17 8.882e-18
6299.944 3.123e-17 8.733e-18
6301.473 6.022e-17 8.279e-18
6303.003 3.874e-17 6.728e-18
6304.532 4.068e-17 6.102e-18
6306.062 4.803e-17 5.729e-18
6307.591 4.296e-17 5.539e-18
6309.12 5.105e-17 5.436e-18
6310.65 4.689e-17 5.232e-18
6312.179 4.899e-17 5.232e-18
6313.709 5.184e-17 5.345e-18
6315.239 4.734e-17 4.925e-18
6316.768 4.044e-17 5.117e-18
6318.298 3.785e-17 5.027e-18
6319.827 6.207e-17 5.46e-18
6321.357 4.593e-17 5.241e-18
6322.886 4.006e-17 5.202e-18
6324.417 5.598e-17 5.291e-18
6325.947 3.724e-17 5.169e-18
6327.476 4.89e-17 5.412e-18
6329.006 5.442e-17 5.505e-18
6330.535 4.424e-17 5.285e-18
6332.065 3.534e-17 5.034e-18
6333.596 4.489e-17 4.942e-18
6335.125 4.389e-17 4.955e-18
6336.655 4.365e-17 4.814e-18
6338.184 4.146e-17 4.915e-18
6339.715 4.866e-17 5.068e-18
6341.245 4.822e-17 5.077e-18
6342.774 4.798e-17 5.016e-18
6344.305 4.965e-17 5.031e-18
6345.834 5.19e-17 5.234e-18
6347.364 4.649e-17 5.062e-18
6348.895 4.799e-17 5.017e-18
6350.424 4.438e-17 4.96e-18
6351.955 3.153e-17 4.87e-18
6353.484 4.215e-17 5.146e-18
6355.015 5.027e-17 5.311e-18
6356.544 5.39e-17 5.319e-18
6358.075 4.363e-17 5.239e-18
6359.605 5.153e-17 6.044e-18
6361.135 4.284e-17 6.17e-18
6362.666 5.45e-17 6.534e-18
6364.195 4.218e-17 6.195e-18
6365.726 5.551e-17 5.76e-18
6367.256 3.785e-17 5.127e-18
6368.786 5.017e-17 5.026e-18
6370.317 4.55e-17 4.925e-18
6371.847 4.787e-17 4.975e-18
6373.377 4.245e-17 4.812e-18
6374.908 4.741e-17 5.104e-18
6376.438 4.591e-17 5.12e-18
6377.969 3.817e-17 4.93e-18
6379.498 4.816e-17 4.96e-18
6381.029 4.025e-17 4.909e-18
6382.559 4.77e-17 5.093e-18
6384.09 4.491e-17 4.917e-18
6385.621 5.383e-17 5.11e-18
6387.151 4.664e-17 5.12e-18
6388.682 5.386e-17 5.168e-18
6390.212 5.116e-17 4.932e-18
6391.743 4.222e-17 4.899e-18
6393.274 5.114e-17 4.975e-18
6394.804 4.741e-17 4.957e-18
6396.335 3.942e-17 4.907e-18
6397.865 4.185e-17 4.941e-18
6399.396 4.938e-17 4.962e-18
6400.927 4.966e-17 5.01e-18
6402.457 4.681e-17 4.985e-18
6403.988 4.124e-17 4.653e-18
6405.518 3.615e-17 4.759e-18
6407.049 3.938e-17 4.818e-18
6408.58 4.327e-17 4.772e-18
6410.111 4.169e-17 4.822e-18
6411.642 3.889e-17 4.765e-18
6413.172 4.508e-17 4.893e-18
6414.704 3.862e-17 4.689e-18
6416.234 4.584e-17 4.833e-18
6417.765 4.309e-17 4.876e-18
6419.296 4.364e-17 4.893e-18
6420.827 5.54e-17 5.168e-18
6422.358 4.214e-17 4.904e-18
6423.889 3.969e-17 4.766e-18
6425.42 4.335e-17 4.687e-18
6426.951 3.909e-17 4.689e-18
6428.482 5.092e-17 5.126e-18
6430.013 3.818e-17 4.785e-18
6431.544 4.93e-17 4.965e-18
6433.075 4.149e-17 4.801e-18
6434.606 4.685e-17 4.825e-18
6436.137 5.273e-17 4.945e-18
6437.669 4.538e-17 4.763e-18
6439.199 4.586e-17 4.818e-18
6440.731 4.266e-17 4.852e-18
6442.262 3.943e-17 4.809e-18
6443.793 3.379e-17 4.608e-18
6445.325 4.541e-17 4.713e-18
6446.855 3.96e-17 4.858e-18
6448.387 3.805e-17 4.653e-18
6449.918 3.92e-17 4.68e-18
6451.45 4.341e-17 4.944e-18
6452.981 4.397e-17 4.846e-18
6454.512 4.609e-17 4.797e-18
6456.044 4.128e-17 4.762e-18
6457.575 4.869e-17 5.047e-18
6459.107 4.023e-17 4.908e-18
6460.637 4.814e-17 4.977e-18
6462.169 4.24e-17 5.187e-18
6463.701 4.476e-17 5.252e-18
6465.232 4.222e-17 5.187e-18
6466.764 3.897e-17 5.083e-18
6468.295 4.456e-17 5.054e-18
6469.827 4.032e-17 4.996e-18
6471.359 5.009e-17 5.232e-18
6472.89 4.429e-17 4.888e-18
6474.422 4.168e-17 4.875e-18
6475.953 4.542e-17 4.818e-18
6477.485 4.503e-17 4.716e-18
6479.017 3.046e-17 4.526e-18
6480.548 3.825e-17 4.726e-18
6482.08 5.157e-17 4.923e-18
6483.611 4.706e-17 4.718e-18
6485.143 4.602e-17 4.881e-18
6486.674 5.515e-17 4.962e-18
6488.207 4.551e-17 4.746e-18
6489.739 4.287e-17 4.753e-18
6491.27 4.261e-17 4.768e-18
6492.802 3.841e-17 4.698e-18
6494.334 4.283e-17 4.955e-18
6495.866 4.095e-17 5.104e-18
6497.398 3.825e-17 5.292e-18
6498.929 5.629e-17 5.348e-18
6500.462 5.023e-17 5.107e-18
6501.993 3.399e-17 4.838e-18
6503.525 4.481e-17 5.064e-18
6505.058 4.255e-17 4.844e-18
6506.589 5.164e-17 4.951e-18
6508.122 5.05e-17 4.706e-18
6509.653 4.48e-17 4.853e-18
6511.186 4.54e-17 4.727e-18
6512.717 3.71e-17 4.547e-18
6514.249 4.639e-17 4.783e-18
6515.782 4.438e-17 4.7e-18
6517.314 3.905e-17 4.66e-18
6518.846 4.3e-17 4.807e-18
6520.378 4.633e-17 4.749e-18
6521.91 4.028e-17 4.788e-18
6523.443 4.108e-17 4.706e-18
6524.974 4.171e-17 4.761e-18
6526.507 4.115e-17 4.707e-18
6528.039 4.105e-17 4.826e-18
6529.571 4.406e-17 5.023e-18
6531.104 4.321e-17 5.068e-18
6532.636 3.24e-17 5.073e-18
6534.169 4.576e-17 5.106e-18
6535.7 3.774e-17 4.705e-18
6537.233 4.034e-17 4.621e-18
6538.765 4.214e-17 4.568e-18
6540.298 4.067e-17 4.543e-18
6541.831 5.291e-17 4.953e-18
6543.362 4.488e-17 4.88e-18
6544.895 4.649e-17 4.775e-18
6546.427 4.414e-17 4.583e-18
6547.96 5.132e-17 4.708e-18
6549.493 4.403e-17 4.891e-18
6551.025 4.619e-17 5.187e-18
6552.558 4.4e-17 5.164e-18
6554.09 4.122e-17 5.073e-18
6555.623 4.598e-17 4.953e-18
6557.156 4.242e-17 4.638e-18
6558.688 3.957e-17 4.687e-18
6560.221 4.326e-17 4.843e-18
6561.753 3.085e-17 4.769e-18
6563.286 4.87e-17 4.969e-18
6564.818 3.688e-17 4.714e-18
6566.351 3.89e-17 4.501e-18
6567.884 4.436e-17 4.681e-18
6569.417 4.764e-17 4.696e-18
6570.95 4.018e-17 4.497e-18
6572.482 3.305e-17 4.456e-18
6574.015 3.766e-17 4.704e-18
6575.548 4.195e-17 4.735e-18
6577.081 4.871e-17 4.911e-18
6578.614 4.015e-17 4.551e-18
6580.146 4.244e-17 4.492e-18
6581.679 4.272e-17 4.457e-18
6583.213 4.045e-17 4.408e-18
6584.745 4.094e-17 4.328e-18
6586.278 4.602e-17 4.354e-18
6587.811 4.117e-17 4.282e-18
6589.344 4.709e-17 4.495e-18
6590.877 4.453e-17 4.421e-18
6592.41 3.819e-17 4.313e-18
6593.943 4.243e-17 4.396e-18
6595.476 3.93e-17 4.32e-18
6597.009 3.815e-17 4.356e-18
6598.542 3.757e-17 4.288e-18
6600.075 4.358e-17 4.407e-18
6601.609 3.852e-17 4.433e-18
6603.142 5.27e-17 4.629e-18
6604.675 4.489e-17 4.476e-18
6606.208 4.498e-17 4.345e-18
6607.741 4.544e-17 4.396e-18
6609.275 4.214e-17 4.348e-18
6610.808 4.441e-17 4.249e-18
6612.341 4.093e-17 4.242e-18
6613.874 5.074e-17 4.426e-18
6615.408 4.928e-17 4.448e-18
6616.94 3.817e-17 4.104e-18
6618.474 4.783e-17 4.431e-18
6620.008 4.14e-17 4.22e-18
6621.541 3.99e-17 4.271e-18
6623.074 4.594e-17 4.432e-18
6624.607 4.851e-17 4.389e-18
6626.141 3.586e-17 4.339e-18
6627.675 4.619e-17 4.386e-18
6629.208 3.727e-17 4.283e-18
6630.741 3.501e-17 4.228e-18
6632.274 3.862e-17 4.236e-18
6633.808 4.096e-17 4.331e-18
6635.342 3.856e-17 4.212e-18
6636.875 4.307e-17 4.518e-18
6638.409 4.281e-17 4.368e-18
6639.942 3.307e-17 3.994e-18
6641.476 4.478e-17 4.212e-18
6643.009 4.43e-17 4.259e-18
6644.543 4.64e-17 4.457e-18
6646.077 4.197e-17 4.382e-18
6647.61 3.98e-17 4.336e-18
6649.144 4.316e-17 4.211e-18
6650.677 4.081e-17 4.231e-18
6652.212 4.457e-17 4.301e-18
6653.746 5.003e-17 4.425e-18
6655.279 4.407e-17 4.376e-18
6656.813 3.738e-17 4.332e-18
6658.346 4.376e-17 4.348e-18
6659.88 3.209e-17 4.024e-18
6661.415 4.304e-17 4.283e-18
6662.948 4.444e-17 4.395e-18
6664.482 4.683e-17 4.406e-18
6666.015 4.261e-17 4.467e-18
6667.55 3.446e-17 4.238e-18
6669.083 3.743e-17 4.238e-18
6670.617 3.711e-17 4.207e-18
6672.152 4.618e-17 4.407e-18
6673.685 4.228e-17 4.276e-18
6675.219 3.599e-17 4.188e-18
6676.753 4.347e-17 4.296e-18
6678.287 4.025e-17 4.176e-18
6679.822 4.631e-17 4.402e-18
6681.355 4.645e-17 4.308e-18
6682.89 5.004e-17 4.391e-18
6684.423 4.64e-17 4.446e-18
6685.958 3.325e-17 4.106e-18
6687.491 3.861e-17 4.335e-18
6689.026 3.265e-17 4.231e-18
6690.56 3.82e-17 4.379e-18
6692.094 4.482e-17 4.352e-18
6693.628 4.257e-17 4.272e-18
6695.162 4.424e-17 4.369e-18
6696.697 4.528e-17 4.357e-18
6698.231 4.351e-17 4.432e-18
6699.765 4.463e-17 4.401e-18
6701.3 4.949e-17 4.445e-18
6702.833 3.77e-17 4.376e-18
6704.368 4.683e-17 4.496e-18
6705.903 4.346e-17 4.483e-18
6707.436 3.556e-17 4.244e-18
6708.971 4.375e-17 4.486e-18
6710.505 4.462e-17 4.409e-18
6712.04 4.219e-17 4.321e-18
6713.574 3.742e-17 4.272e-18
6715.108 4.673e-17 4.473e-18
6716.643 3.714e-17 4.279e-18
6718.177 4.667e-17 4.392e-18
6719.712 3.981e-17 4.225e-18
6721.246 3.651e-17 4.205e-18
6722.781 4.741e-17 4.382e-18
6724.316 3.788e-17 4.255e-18
6725.85 4.515e-17 4.348e-18
6727.385 3.771e-17 4.203e-18
6728.919 3.999e-17 4.204e-18
6730.454 3.534e-17 4.184e-18
6731.989 4.811e-17 4.286e-18
6733.523 3.979e-17 4.234e-18
6735.058 4.25e-17 4.118e-18
6736.592 3.73e-17 4.146e-18
6738.127 4.221e-17 4.27e-18
6739.661 4.029e-17 4.244e-18
6741.196 4.447e-17 4.376e-18
6742.731 3.776e-17 4.215e-18
6744.265 4.016e-17 4.242e-18
6745.8 4.07e-17 4.162e-18
6747.335 3.689e-17 4.095e-18
6748.87 4.256e-17 4.152e-18
6750.405 3.492e-17 4.099e-18
6751.939 3.469e-17 4.137e-18
6753.475 4.491e-17 4.299e-18
6755.009 4.162e-17 4.189e-18
6756.544 4.385e-17 4.2e-18
6758.079 5.221e-17 4.268e-18
6759.614 4.092e-17 4.029e-18
6761.149 3.985e-17 4.111e-18
6762.683 3.521e-17 4.055e-18
6764.219 4.01e-17 3.965e-18
6765.753 4.792e-17 4.314e-18
6767.289 4.665e-17 4.213e-18
6768.824 4.752e-17 4.32e-18
6770.358 4.739e-17 4.058e-18
6771.894 4.717e-17 4.26e-18
6773.428 4.216e-17 4.19e-18
6774.964 4.128e-17 4.165e-18
6776.499 4.671e-17 4.219e-18
6778.034 4.016e-17 4.121e-18
6779.569 2.587e-17 3.995e-18
6781.104 4.356e-17 3.991e-18
6782.639 3.47e-17 4.017e-18
6784.174 3.902e-17 4.054e-18
6785.71 4.046e-17 4.075e-18
6787.245 3.807e-17 4.073e-18
6788.78 4.148e-17 4.064e-18
6790.316 4.116e-17 4.076e-18
6791.85 3.33e-17 3.923e-18
6793.386 4.105e-17 4.072e-18
6794.922 4.191e-17 4.023e-18
6796.456 4.656e-17 4.19e-18
6797.992 3.436e-17 3.855e-18
6799.527 3.828e-17 3.988e-18
6801.063 4.123e-17 4.009e-18
6802.598 4.764e-17 4.084e-18
6804.133 3.621e-17 3.92e-18
6805.669 3.791e-17 3.948e-18
6807.204 4.434e-17 4.056e-18
6808.74 4.225e-17 3.966e-18
6810.275 3.466e-17 3.896e-18
6811.81 3.949e-17 3.926e-18
6813.346 3.682e-17 3.822e-18
6814.881 4.24e-17 4.044e-18
6816.417 4.106e-17 3.87e-18
6817.952 3.984e-17 3.938e-18
6819.488 3.799e-17 3.842e-18
6821.024 4.192e-17 3.872e-18
6822.559 3.898e-17 4.003e-18
6824.095 4.131e-17 4.296e-18
6825.63 3.955e-17 4.556e-18
6827.166 3.69e-17 4.631e-18
6828.702 3.972e-17 4.78e-18
6830.237 3.564e-17 4.779e-18
6831.773 4.023e-17 4.765e-18
6833.308 3.348e-17 4.677e-18
6834.845 3.91e-17 4.582e-18
6836.38 3.786e-17 4.254e-18
6837.916 3.46e-17 4.001e-18
6839.452 3.874e-17 4.073e-18
6840.987 3.745e-17 3.959e-18
6842.523 3.601e-17 4.007e-18
6844.059 4.298e-17 3.999e-18
6845.595 3.771e-17 3.985e-18
6847.131 3.485e-17 3.763e-18
6848.666 4.223e-17 3.939e-18
6850.203 3.83e-17 3.83e-18
6851.738 4.635e-17 4.032e-18
6853.274 3.634e-17 3.819e-18
6854.81 4.088e-17 3.938e-18
6856.346 3.496e-17 3.839e-18
6857.882 3.57e-17 3.794e-18
6859.418 4.119e-17 4.541e-18
6860.954 4.391e-17 5.045e-18
6862.49 3.996e-17 5.315e-18
6864.026 3.613e-17 5.395e-18
6865.562 3.891e-17 5.524e-18
6867.098 3.849e-17 5.312e-18
6868.634 4.003e-17 5.417e-18
6870.17 4.416e-17 5.502e-18
6871.706 3.72e-17 5.216e-18
6873.243 3.532e-17 4.673e-18
6874.778 4.265e-17 4.742e-18
6876.315 3.12e-17 4.321e-18
6877.851 3.98e-17 4.395e-18
6879.387 3.859e-17 4.322e-18
6880.923 4.109e-17 4.321e-18
6882.459 4.259e-17 4.351e-18
6883.996 3.699e-17 4.393e-18
6885.532 3.459e-17 4.509e-18
6887.068 3.809e-17 4.627e-18
6888.604 3.676e-17 4.64e-18
6890.141 4.221e-17 4.389e-18
6891.677 4.224e-17 4.445e-18
6893.213 4.704e-17 4.43e-18
6894.75 3.79e-17 4.444e-18
6896.286 3.311e-17 4.153e-18
6897.822 3.343e-17 4.453e-18
6899.358 3.598e-17 4.291e-18
6900.895 3.544e-17 4.356e-18
6902.432 2.805e-17 4.059e-18
6903.968 3.923e-17 4.196e-18
6905.504 4.003e-17 4.208e-18
6907.04 3.835e-17 4.406e-18
6908.577 3.564e-17 4.27e-18
6910.114 4.03e-17 4.469e-18
6911.65 3.648e-17 4.485e-18
6913.187 3.141e-17 4.061e-18
6914.723 3.761e-17 4.364e-18
6916.26 3.509e-17 4.024e-18
6917.797 4.099e-17 4.169e-18
6919.333 4.28e-17 4.719e-18
6920.87 3.519e-17 4.638e-18
6922.406 4.582e-17 4.868e-18
6923.943 3.199e-17 4.585e-18
6925.479 4.169e-17 4.369e-18
6927.016 4.046e-17 4.2e-18
6928.553 3.888e-17 3.914e-18
6930.089 4.38e-17 4.12e-18
6931.626 3.467e-17 3.95e-18
6933.163 3.749e-17 3.927e-18
6934.7 2.575e-17 3.867e-18
6936.237 4.204e-17 4.307e-18
6937.773 3.979e-17 4.378e-18
6939.31 3.682e-17 4.266e-18
6940.846 3.56e-17 4.141e-18
6942.384 2.657e-17 3.858e-18
6943.92 2.939e-17 4.214e-18
6945.457 3.756e-17 4.419e-18
6946.994 3.425e-17 4.597e-18
6948.531 4.524e-17 4.879e-18
6950.068 4.004e-17 4.701e-18
6951.604 3.619e-17 4.071e-18
6953.142 3.818e-17 3.977e-18
6954.679 3.514e-17 3.977e-18
6956.215 3.959e-17 4.033e-18
6957.753 3.418e-17 4.05e-18
6959.289 3.346e-17 3.899e-18
6960.827 3.632e-17 4.084e-18
6962.364 4.079e-17 4.112e-18
6963.9 4.324e-17 4.134e-18
6965.438 4.141e-17 4.17e-18
6966.974 3.627e-17 4.202e-18
6968.512 4.005e-17 4.239e-18
6970.048 3.87e-17 4.116e-18
6971.586 4.012e-17 4.15e-18
6973.123 3.507e-17 4.187e-18
6974.66 4.301e-17 4.436e-18
6976.198 3.645e-17 4.341e-18
6977.734 4.261e-17 4.47e-18
6979.272 3.451e-17 4.272e-18
6980.809 3.411e-17 4.255e-18
6982.346 2.973e-17 3.925e-18
6983.884 3.261e-17 3.949e-18
6985.42 3.74e-17 3.927e-18
6986.958 4.198e-17 4.104e-18
6988.495 2.712e-17 3.711e-18
6990.032 3.198e-17 3.878e-18
6991.57 4.044e-17 3.955e-18
6993.107 3.473e-17 3.86e-18
6994.644 3.255e-17 3.995e-18
6996.181 3.693e-17 3.861e-18
6997.719 3.658e-17 4.109e-18
6999.257 3.275e-17 4.046e-18
7000.794 4.214e-17 4.051e-18
7002.331 4.132e-17 4.196e-18
7003.868 2.741e-17 3.945e-18
7005.406 2.332e-17 3.734e-18
7006.944 2.946e-17 3.84e-18
7008.481 3.832e-17 4.132e-18
7010.019 3.188e-17 4.052e-18
7011.556 4.132e-17 4.176e-18
7013.093 3.243e-17 4.108e-18
7014.63 2.765e-17 3.805e-18
7016.168 3.645e-17 3.974e-18
7017.706 3.851e-17 4.037e-18
7019.243 4.039e-17 4.006e-18
7020.781 3.119e-17 3.757e-18
7022.318 3.411e-17 3.94e-18
7023.856 3.764e-17 3.932e-18
7025.394 3.517e-17 3.944e-18
7026.931 4.035e-17 3.898e-18
7028.47 3.175e-17 3.797e-18
7030.007 3.201e-17 3.834e-18
7031.545 3.709e-17 3.923e-18
7033.082 3.39e-17 3.723e-18
7034.62 3.667e-17 3.863e-18
7036.158 3.164e-17 3.628e-18
7037.695 3.104e-17 3.797e-18
7039.233 2.716e-17 3.622e-18
7040.771 4.391e-17 3.93e-18
7042.309 4.339e-17 4.104e-18
7043.847 3.626e-17 3.947e-18
7045.384 4.016e-17 4.007e-18
7046.922 3.483e-17 4.063e-18
7048.46 4.033e-17 4.02e-18
7049.998 4.14e-17 4.201e-18
7051.536 3.935e-17 3.967e-18
7053.074 3.697e-17 3.982e-18
7054.612 3.638e-17 3.87e-18
7056.149 3.926e-17 3.903e-18
7057.688 3.545e-17 3.798e-18
7059.225 4.095e-17 3.942e-18
7060.763 2.903e-17 3.613e-18
7062.302 3.018e-17 3.777e-18
7063.839 3.289e-17 3.85e-18
7065.378 3.603e-17 3.993e-18
7066.915 3.512e-17 3.697e-18
7068.453 3.432e-17 3.826e-18
7069.992 3.749e-17 3.804e-18
7071.529 3.407e-17 3.813e-18
7073.068 3.149e-17 3.61e-18
7074.605 3.223e-17 3.761e-18
7076.144 3.489e-17 3.821e-18
7077.681 3.569e-17 3.832e-18
7079.22 3.43e-17 3.739e-18
7080.758 3.598e-17 3.826e-18
7082.296 2.918e-17 3.677e-18
7083.835 3.382e-17 3.691e-18
7085.372 3.782e-17 3.816e-18
7086.911 3.433e-17 3.769e-18
7088.45 3.789e-17 3.738e-18
7089.987 4.128e-17 3.864e-18
7091.526 3.119e-17 3.679e-18
7093.064 3.216e-17 3.786e-18
7094.602 3.658e-17 3.682e-18
7096.14 4.042e-17 3.787e-18
7097.679 3.942e-17 3.892e-18
7099.217 3.621e-17 3.715e-18
7100.755 3.04e-17 3.567e-18
7102.294 3.35e-17 3.587e-18
7103.832 3.668e-17 3.629e-18
7105.37 3.435e-17 3.732e-18
7106.909 3.683e-17 3.752e-18
7108.447 3.848e-17 3.672e-18
7109.986 3.338e-17 3.571e-18
7111.524 3.158e-17 3.517e-18
7113.063 3.617e-17 3.7e-18
7114.601 3.686e-17 3.606e-18
7116.139 2.844e-17 3.546e-18
7117.678 3.225e-17 3.524e-18
7119.216 3.633e-17 3.648e-18
7120.755 3.311e-17 3.667e-18
7122.293 3.69e-17 3.618e-18
7123.832 3.144e-17 3.636e-18
7125.371 3.141e-17 3.612e-18
7126.909 2.8e-17 3.501e-18
7128.448 2.875e-17 3.561e-18
7129.986 3.552e-17 3.608e-18
7131.525 3.463e-17 3.673e-18
7133.064 3.241e-17 3.612e-18
7134.602 4.27e-17 3.656e-18
7136.141 3.538e-17 3.532e-18
7137.679 3.294e-17 3.529e-18
7139.218 3.743e-17 3.775e-18
7140.756 3.657e-17 3.63e-18
7142.296 2.628e-17 3.519e-18
7143.835 3.196e-17 3.696e-18
7145.373 3.763e-17 3.671e-18
7146.912 3.091e-17 3.575e-18
7148.45 3.222e-17 3.506e-18
7149.989 3.577e-17 3.724e-18
7151.529 3.242e-17 3.533e-18
7153.067 3.545e-17 3.547e-18
7154.606 3.216e-17 3.622e-18
7156.144 3.639e-17 3.713e-18
7157.684 2.906e-17 3.495e-18
7159.222 3.725e-17 3.682e-18
7160.761 3.383e-17 3.583e-18
7162.3 3.137e-17 3.629e-18
7163.839 3.416e-17 3.646e-18
7165.378 2.976e-17 3.565e-18
7166.916 3.729e-17 3.681e-18
7168.456 3.242e-17 3.839e-18
7169.995 3.48e-17 3.822e-18
7171.534 2.54e-17 3.638e-18
7173.073 3.272e-17 3.844e-18
7174.611 3.12e-17 3.761e-18
7176.151 3.134e-17 3.771e-18
7177.69 3.674e-17 3.823e-18
7179.229 3.181e-17 3.784e-18
7180.768 2.184e-17 3.598e-18
7182.307 2.971e-17 3.732e-18
7183.846 2.86e-17 3.666e-18
7185.385 3.043e-17 3.908e-18
7186.924 3.412e-17 3.913e-18
7188.464 3.09e-17 3.912e-18
7190.002 2.845e-17 3.768e-18
7191.542 2.529e-17 3.53e-18
7193.08 3.312e-17 3.678e-18
7194.62 3.037e-17 3.719e-18
7196.16 3.488e-17 3.734e-18
7197.698 3.12e-17 3.815e-18
7199.238 2.843e-17 3.784e-18
7200.776 3.301e-17 3.844e-18
7202.316 3.707e-17 3.933e-18
7203.855 3.09e-17 3.883e-18
7205.394 2.973e-17 3.738e-18
7206.934 3.421e-17 3.871e-18
7208.473 3.257e-17 3.704e-18
7210.013 3.192e-17 3.578e-18
7211.551 3.11e-17 3.652e-18
7213.091 3.219e-17 3.708e-18
7214.631 2.911e-17 3.583e-18
7216.17 3.112e-17 3.585e-18
7217.709 3.143e-17 3.642e-18
7219.248 3.975e-17 3.814e-18
7220.788 2.685e-17 3.685e-18
7222.327 4.039e-17 3.822e-18
7223.867 3.175e-17 3.815e-18
7225.407 3.147e-17 3.701e-18
7226.945 3.221e-17 3.619e-18
7228.485 3.591e-17 3.705e-18
7230.024 2.847e-17 3.736e-18
7231.564 3.297e-17 3.907e-18
7233.104 2.262e-17 3.835e-18
7234.643 3.252e-17 4.429e-18
7236.183 3.488e-17 5.24e-18
7237.722 4.068e-17 5.645e-18
7239.262 4.175e-17 6.087e-18
7240.802 3.515e-17 6.296e-18
7242.341 3.021e-17 5.979e-18
7243.881 3.007e-17 5.71e-18
7245.42 2.932e-17 5.326e-18
7246.96 2.631e-17 4.697e-18
7248.499 2.986e-17 4.371e-18
7250.039 3.941e-17 4.494e-18
7251.579 3.31e-17 4.405e-18
7253.118 3.645e-17 4.445e-18
7254.658 3.299e-17 4.178e-18
7256.197 3.358e-17 3.856e-18
7257.738 3.687e-17 3.92e-18
7259.278 2.555e-17 3.726e-18
7260.817 3.092e-17 3.793e-18
7262.357 3.19e-17 3.991e-18
7263.896 2.677e-17 3.921e-18
7265.436 3.33e-17 3.853e-18
7266.976 3.5e-17 3.927e-18
7268.516 2.972e-17 3.943e-18
7270.056 3.476e-17 4.197e-18
7271.595 3.538e-17 5.141e-18
7273.136 2.507e-17 6.024e-18
7274.675 2.387e-17 6.339e-18
7276.215 2.414e-17 6.088e-18
7277.756 2.492e-17 5.372e-18
7279.295 2.792e-17 4.902e-18
7280.835 3.247e-17 4.915e-18
7282.374 2.576e-17 4.785e-18
7283.915 4.258e-17 4.857e-18
7285.454 3.642e-17 4.767e-18
7286.995 2.852e-17 4.176e-18
7288.535 2.321e-17 3.941e-18
7290.074 2.906e-17 3.882e-18
7291.615 2.319e-17 3.837e-18
7293.154 2.69e-17 4.028e-18
7294.695 3.119e-17 3.973e-18
7296.235 3.405e-17 4.179e-18
7297.775 2.935e-17 3.858e-18
7299.315 3.06e-17 4.188e-18
7300.855 2.859e-17 4.275e-18
7302.395 2.433e-17 4.32e-18
7303.935 3.615e-17 4.368e-18
7305.475 2.572e-17 4.102e-18
7307.016 3.477e-17 4.13e-18
7308.555 3.345e-17 3.986e-18
7310.096 3.195e-17 4.018e-18
7311.635 2.861e-17 4.715e-18
7313.176 3.552e-17 5.341e-18
7314.717 2.992e-17 5.417e-18
7316.256 2.616e-17 5.519e-18
7317.797 2.577e-17 4.802e-18
7319.336 3.43e-17 4.23e-18
7320.877 3.675e-17 3.965e-18
7322.417 2.955e-17 3.759e-18
7323.957 3.038e-17 3.958e-18
7325.498 3.18e-17 4.155e-18
7327.038 3.72e-17 4.329e-18
7328.579 2.904e-17 4.335e-18
7330.118 3.522e-17 4.26e-18
7331.659 2.689e-17 3.76e-18
7333.2 2.94e-17 3.649e-18
7334.74 3.287e-17 3.918e-18
7336.28 3.177e-17 4.772e-18
7337.82 2.927e-17 5.235e-18
7339.361 4.465e-17 5.861e-18
7340.902 3.005e-17 5.298e-18
7342.442 3.25e-17 4.89e-18
7343.982 2.919e-17 4.238e-18
7345.522 3.208e-17 3.691e-18
7347.063 2.972e-17 3.545e-18
7348.603 2.908e-17 3.57e-18
7350.144 3.4e-17 3.639e-18
7351.685 2.566e-17 3.553e-18
7353.225 2.56e-17 3.611e-18
7354.766 2.695e-17 3.809e-18
7356.306 3.535e-17 4.155e-18
7357.847 3.547e-17 4.284e-18
7359.387 3.528e-17 4.157e-18
7360.927 2.805e-17 3.712e-18
7362.468 2.424e-17 3.462e-18
7364.008 4.034e-17 4.152e-18
7365.549 3.386e-17 4.553e-18
7367.089 2.448e-17 4.758e-18
7368.631 2.028e-17 4.717e-18
7370.172 3.276e-17 4.582e-18
7371.712 3.252e-17 4.174e-18
7373.253 3.247e-17 3.777e-18
7374.793 3.317e-17 3.525e-18
7376.334 2.668e-17 3.326e-18
7377.875 3.199e-17 3.407e-18
7379.415 3.282e-17 3.417e-18
7380.956 3.322e-17 3.456e-18
7382.496 2.931e-17 3.399e-18
7384.038 2.713e-17 3.211e-18
7385.578 3.214e-17 3.443e-18
7387.119 2.481e-17 3.397e-18
7388.66 2.832e-17 3.641e-18
7390.2 3.63e-17 3.999e-18
7391.742 3.64e-17 3.987e-18
7393.282 2.154e-17 3.487e-18
7394.823 3.748e-17 3.694e-18
7396.364 2.969e-17 3.552e-18
7397.905 3.546e-17 4.017e-18
7399.446 2.722e-17 4.141e-18
7400.986 3.088e-17 4.375e-18
7402.527 2.819e-17 4.085e-18
7404.068 2.741e-17 3.711e-18
7405.609 2.878e-17 3.436e-18
7407.15 3.042e-17 3.333e-18
7408.691 2.708e-17 3.334e-18
7410.232 2.69e-17 3.253e-18
7411.772 2.781e-17 3.36e-18
7413.314 2.57e-17 3.279e-18
7414.855 3.161e-17 3.39e-18
7416.396 3.087e-17 3.242e-18
7417.937 3.049e-17 3.36e-18
7419.478 3.245e-17 3.36e-18
7421.019 3.285e-17 3.322e-18
7422.559 3.376e-17 3.364e-18
7424.101 3.42e-17 3.425e-18
7425.642 2.511e-17 3.251e-18
7427.183 2.964e-17 3.56e-18
7428.724 3.581e-17 3.612e-18
7430.265 2.595e-17 3.472e-18
7431.806 3.125e-17 3.393e-18
7433.348 2.457e-17 3.356e-18
7434.888 2.441e-17 3.623e-18
7436.43 2.458e-17 3.731e-18
7437.971 3.996e-17 3.968e-18
7439.512 3.139e-17 3.724e-18
7441.054 3.512e-17 3.566e-18
7442.594 3.617e-17 3.449e-18
7444.136 3.016e-17 3.363e-18
7445.677 2.553e-17 3.233e-18
7447.218 2.74e-17 3.22e-18
7448.759 3.077e-17 3.369e-18
7450.301 3.485e-17 3.264e-18
7451.842 1.993e-17 3.122e-18
7453.383 3.476e-17 3.45e-18
7454.925 3.198e-17 3.211e-18
7456.465 3.038e-17 3.292e-18
7458.007 3.12e-17 3.325e-18
7459.549 2.849e-17 3.357e-18
7461.09 2.612e-17 3.561e-18
7462.631 3.128e-17 3.598e-18
7464.172 2.645e-17 3.596e-18
7465.714 3.158e-17 3.639e-18
7467.255 2.817e-17 3.631e-18
7468.797 2.686e-17 3.679e-18
7470.338 2.864e-17 3.858e-18
7471.879 3.125e-17 3.802e-18
7473.421 3.158e-17 3.696e-18
7474.962 3.283e-17 3.862e-18
7476.504 3.231e-17 4.016e-18
7478.046 2.633e-17 3.906e-18
7479.586 2.704e-17 3.969e-18
7481.128 2.982e-17 4.135e-18
7482.669 2.858e-17 4.018e-18
7484.211 2.518e-17 3.721e-18
7485.752 3.683e-17 3.783e-18
7487.294 3.304e-17 3.674e-18
7488.836 2.664e-17 3.634e-18
7490.377 3.171e-17 3.731e-18
7491.919 3.265e-17 3.68e-18
7493.46 2.952e-17 3.6e-18
7495.002 2.871e-17 3.521e-18
7496.544 3.183e-17 3.489e-18
7498.085 2.37e-17 3.352e-18
7499.627 3.429e-17 3.676e-18
7501.168 2.685e-17 3.4e-18
7502.71 2.622e-17 3.377e-18
7504.251 3.256e-17 3.436e-18
7505.793 2.739e-17 3.34e-18
7507.335 3.193e-17 3.51e-18
7508.876 2.717e-17 3.364e-18
7510.418 2.956e-17 3.561e-18
7511.96 2.703e-17 3.502e-18
7513.502 2.772e-17 3.532e-18
7515.044 2.566e-17 3.45e-18
7516.585 2.986e-17 3.558e-18
7518.127 3.215e-17 3.861e-18
7519.668 3.246e-17 4.432e-18
7521.211 3.399e-17 4.921e-18
7522.752 3.779e-17 5.097e-18
7524.294 3.22e-17 5.017e-18
7525.836 3.373e-17 4.596e-18
7527.377 3.006e-17 4.329e-18
7528.92 2.771e-17 4.085e-18
7530.461 2.789e-17 4e-18
7532.003 3.312e-17 3.926e-18
7533.545 3.024e-17 3.691e-18
7535.087 2.913e-17 3.664e-18
7536.629 2.717e-17 3.629e-18
7538.17 3.014e-17 3.694e-18
7539.713 2.741e-17 3.648e-18
7541.254 2.656e-17 3.587e-18
7542.796 2.592e-17 3.469e-18
7544.339 2.821e-17 3.595e-18
7545.88 2.304e-17 3.519e-18
7547.422 2.178e-17 3.367e-18
7548.964 2.91e-17 3.474e-18
7550.506 2.966e-17 3.682e-18
7552.049 3.09e-17 3.652e-18
7553.59 2.49e-17 3.859e-18
7555.132 2.691e-17 3.798e-18
7556.674 2.924e-17 3.807e-18
7558.216 3.616e-17 3.988e-18
7559.758 2.986e-17 3.772e-18
7561.3 3.129e-17 3.753e-18
7562.843 2.557e-17 3.604e-18
7564.384 2.646e-17 3.683e-18
7565.927 2.514e-17 3.907e-18
7567.468 3.053e-17 4.417e-18
7569.011 3.583e-17 4.576e-18
7570.553 3.077e-17 4.755e-18
7572.095 3.936e-17 4.908e-18
7573.637 2.762e-17 4.331e-18
7575.179 2.82e-17 4.015e-18
7576.721 3.217e-17 3.853e-18
7578.263 3.505e-17 3.775e-18
7579.806 3.076e-17 3.705e-18
7581.348 3.474e-17 3.984e-18
7582.89 2.964e-17 3.995e-18
7584.432 2.807e-17 3.964e-18
7585.974 3.382e-17 4.124e-18
7587.517 3.287e-17 4.108e-18
7589.059 2.403e-17 3.807e-18
7590.601 3.47e-17 4.177e-18
7592.144 3.121e-17 4.751e-18
7593.685 2.648e-17 5.351e-18
7595.228 2.615e-17 6.956e-18
7596.77 2.815e-17 8.951e-18
7598.313 9.519e-18 9.657e-18
7599.855 3.218e-17 1.239e-17
7601.397 3.86e-17 1.27e-17
7602.94 -1.555e-18 1.164e-17
7604.482 3.589e-17 1.267e-17
7606.024 1.045e-17 1.141e-17
7607.567 3.702e-17 1.158e-17
7609.109 1.073e-17 9.106e-18
7610.652 3.143e-17 8.061e-18
7612.194 1.935e-17 6.937e-18
7613.736 1.519e-17 5.842e-18
7615.279 3.393e-17 5.321e-18
7616.821 3.734e-17 5.097e-18
7618.364 2.418e-17 5.168e-18
7619.906 2.981e-17 5.214e-18
7621.449 3.643e-17 5.79e-18
7622.991 1.117e-17 5.803e-18
7624.533 2.482e-17 6.738e-18
7626.076 3.231e-17 7.266e-18
7627.618 2.611e-17 7.548e-18
7629.161 2.276e-17 7.036e-18
7630.703 2.41e-17 6.89e-18
7632.246 3.085e-17 6.779e-18
7633.789 1.92e-17 5.88e-18
7635.331 3.713e-17 6.144e-18
7636.874 3.174e-17 5.968e-18
7638.416 3.442e-17 5.643e-18
7639.959 3.169e-17 5.613e-18
7641.501 2.182e-17 5.281e-18
7643.044 3.135e-17 5.175e-18
7644.587 3.436e-17 5.185e-18
7646.129 2.84e-17 4.938e-18
7647.672 2.217e-17 4.815e-18
7649.214 2.184e-17 4.78e-18
7650.757 2.659e-17 4.788e-18
7652.3 3.087e-17 4.647e-18
7653.842 2.151e-17 4.578e-18
7655.386 2.467e-17 4.163e-18
7656.928 2.561e-17 4.422e-18
7658.471 3.272e-17 4.51e-18
7660.013 4.008e-17 4.762e-18
7661.556 3.692e-17 4.714e-18
7663.099 3.034e-17 4.463e-18
7664.641 3.831e-17 4.34e-18
7666.185 2.909e-17 4.108e-18
7667.727 2.55e-17 3.961e-18
7669.27 3.903e-17 4.074e-18
7670.813 2.989e-17 3.792e-18
7672.355 3.047e-17 3.833e-18
7673.899 2.864e-17 3.818e-18
7675.441 2.575e-17 3.702e-18
7676.984 2.953e-17 3.721e-18
7678.526 3.19e-17 3.822e-18
7680.07 2.871e-17 3.626e-18
7681.613 3.041e-17 3.651e-18
7683.155 2.511e-17 3.717e-18
7684.698 3.763e-17 3.766e-18
7686.241 2.464e-17 3.658e-18
7687.784 2.397e-17 3.694e-18
7689.327 2.365e-17 3.569e-18
7690.87 2.796e-17 3.74e-18
7692.413 2.774e-17 3.642e-18
7693.955 2.786e-17 3.621e-18
7695.499 2.828e-17 3.725e-18
7697.041 1.666e-17 3.655e-18
7698.584 3.147e-17 3.834e-18
7700.128 2.996e-17 3.695e-18
7701.67 2.672e-17 3.681e-18
7703.214 3.199e-17 3.775e-18
7704.756 3.169e-17 3.624e-18
7706.299 2.879e-17 3.869e-18
7707.843 3.397e-17 4.531e-18
7709.385 3.218e-17 5.194e-18
7710.929 1.915e-17 5.444e-18
7712.471 3.312e-17 6.212e-18
7714.015 3.674e-17 6.334e-18
7715.557 3.055e-17 6.06e-18
7717.101 2.226e-17 5.593e-18
7718.644 3.21e-17 5.13e-18
7720.187 3.282e-17 4.518e-18
7721.73 2.883e-17 4.259e-18
7723.273 2.534e-17 4.27e-18
7724.816 2.958e-17 4.25e-18
7726.36 3.919e-17 4.277e-18
7727.902 2.968e-17 3.927e-18
7729.446 2.848e-17 3.653e-18
7730.988 3.178e-17 3.654e-18
7732.532 2.91e-17 3.758e-18
7734.075 3.27e-17 3.843e-18
7735.618 2.606e-17 3.594e-18
7737.162 2.919e-17 3.773e-18
7738.705 2.176e-17 3.455e-18
7740.248 2.744e-17 3.528e-18
7741.791 3.085e-17 3.592e-18
7743.334 2.556e-17 3.505e-18
7744.878 3.069e-17 4.334e-18
7746.421 3.178e-17 5.401e-18
7747.964 3.693e-17 6.004e-18
7749.507 2.23e-17 5.876e-18
7751.051 3.639e-17 5.884e-18
7752.594 2.024e-17 4.956e-18
7754.137 2.633e-17 4.299e-18
7755.681 2.863e-17 4.193e-18
7757.224 2.42e-17 4.297e-18
7758.767 2.729e-17 4.439e-18
7760.31 2.135e-17 4.243e-18
7761.854 2.706e-17 4.004e-18
7763.398 1.989e-17 3.538e-18
7764.941 2.799e-17 3.506e-18
7766.484 2.779e-17 3.479e-18
7768.027 3.01e-17 3.553e-18
7769.571 2.543e-17 3.689e-18
7771.114 2.611e-17 3.769e-18
7772.658 3.457e-17 3.861e-18
7774.201 2.479e-17 3.749e-18
7775.744 2.384e-17 4.023e-18
7777.288 2.854e-17 4.006e-18
7778.831 2.698e-17 4.107e-18
7780.375 3.172e-17 4.097e-18
7781.919 2.518e-17 3.885e-18
7783.462 2.425e-17 3.567e-18
7785.006 2.976e-17 3.618e-18
7786.548 3.29e-17 3.707e-18
7788.092 2.775e-17 3.994e-18
7789.635 3.407e-17 4.875e-18
7791.179 3.435e-17 5.277e-18
7792.723 3.362e-17 5.707e-18
7794.266 2.45e-17 5.421e-18
7795.81 2.505e-17 4.777e-18
7797.353 3.267e-17 4.066e-18
7798.897 3.168e-17 3.78e-18
7800.441 2.564e-17 3.441e-18
7801.984 3.208e-17 3.534e-18
7803.528 3.056e-17 3.868e-18
7805.071 2.844e-17 4.191e-18
7806.615 2.003e-17 4.23e-18
7808.158 3.129e-17 4.528e-18
7809.702 2.212e-17 4.101e-18
7811.246 2.224e-17 3.834e-18
7812.789 2.973e-17 3.873e-18
7814.333 2.674e-17 3.485e-18
7815.876 3.614e-17 4.358e-18
7817.421 2.693e-17 5.18e-18
7818.965 2.119e-17 5.733e-18
7820.508 1.752e-17 5.87e-18
7822.052 3.017e-17 5.721e-18
7823.595 2.317e-17 4.886e-18
7825.139 2.365e-17 4.05e-18
7826.682 2.518e-17 3.737e-18
7828.226 2.089e-17 3.525e-18
7829.771 2.046e-17 3.425e-18
7831.314 2.764e-17 3.515e-18
7832.858 2.162e-17 3.445e-18
7834.401 3.047e-17 3.695e-18
7835.945 2.425e-17 3.712e-18
7837.49 2.919e-17 4.024e-18
7839.033 2.427e-17 4.356e-18
7840.577 2.48e-17 4.34e-18
7842.12 3.522e-17 4.383e-18
7843.664 3.051e-17 4.126e-18
7845.208 2.593e-17 3.737e-18
7846.752 3.253e-17 4.102e-18
7848.296 1.867e-17 4.927e-18
7849.839 1.767e-17 5.716e-18
7851.384 3.103e-17 6.093e-18
7852.927 2.309e-17 6.096e-18
7854.471 2.757e-17 6.047e-18
7856.016 3.206e-17 5.454e-18
7857.559 3.522e-17 5.291e-18
7859.103 3.09e-17 4.986e-18
7860.647 2.928e-17 4.821e-18
7862.191 1.892e-17 4.42e-18
7863.734 3.076e-17 4.33e-18
7865.279 2.036e-17 4.582e-18
7866.823 3.631e-17 5.279e-18
7868.366 2.286e-17 5.348e-18
7869.911 2.344e-17 5.148e-18
7871.454 2.003e-17 4.909e-18
7872.999 2.159e-17 4.6e-18
7874.543 3.085e-17 4.425e-18
7876.086 3.026e-17 4.709e-18
7877.631 2.948e-17 4.9e-18
7879.174 2.535e-17 4.876e-18
7880.719 1.389e-17 4.528e-18
7882.262 3.379e-17 4.539e-18
7883.807 2.84e-17 4.345e-18
7885.351 3.247e-17 4.678e-18
7886.894 3.153e-17 5.004e-18
7888.439 2.722e-17 5.179e-18
7889.982 3.815e-17 5.323e-18
7891.527 2.097e-17 4.766e-18
7893.071 3.66e-17 4.543e-18
7894.615 1.451e-17 3.703e-18
7896.159 2.768e-17 3.888e-18
7897.703 3.24e-17 4.042e-18
7899.248 1.902e-17 3.593e-18
7900.791 2.991e-17 3.962e-18
7902.336 2.656e-17 3.935e-18
7903.88 2.939e-17 3.846e-18
7905.424 2.809e-17 4.002e-18
7906.968 2.272e-17 4.397e-18
7908.512 3.197e-17 5.462e-18
7910.057 1.17e-17 6.103e-18
7911.601 3.006e-17 7.156e-18
7913.145 2.401e-17 7.295e-18
7914.689 3.802e-17 6.774e-18
7916.233 2.598e-17 6.186e-18
7917.778 3.158e-17 5.752e-18
7919.321 2.914e-17 5.672e-18
7920.866 1.89e-17 5.212e-18
7922.411 2.315e-17 5.061e-18
7923.954 3.124e-17 4.497e-18
7925.499 2.698e-17 4.228e-18
7927.043 2.141e-17 4.34e-18
7928.587 2.098e-17 4.751e-18
7930.132 1.814e-17 4.88e-18
7931.676 2.461e-17 4.867e-18
7933.22 2.929e-17 4.609e-18
7934.764 2.434e-17 3.991e-18
7936.309 2.901e-17 3.921e-18
7937.853 2.292e-17 3.823e-18
7939.397 2.343e-17 3.604e-18
7940.942 2.338e-17 3.722e-18
7942.486 2.363e-17 3.889e-18
7944.031 3.076e-17 4.19e-18
7945.574 2.007e-17 4.392e-18
7947.119 3.54e-17 4.669e-18
7948.663 3.381e-17 4.825e-18
7950.208 1.192e-17 4.284e-18
7951.753 2.626e-17 4.148e-18
7953.297 2.104e-17 3.86e-18
7954.841 2.406e-17 3.706e-18
7956.385 2.924e-17 3.884e-18
7957.93 1.783e-17 3.894e-18
7959.475 2.511e-17 4.703e-18
7961.019 2.081e-17 5.745e-18
7962.564 3.271e-17 6.507e-18
7964.107 3.06e-17 6.552e-18
7965.652 1.519e-17 5.831e-18
7967.196 2.324e-17 4.978e-18
7968.741 1.934e-17 4.264e-18
7970.286 2.357e-17 3.836e-18
7971.83 2.509e-17 3.928e-18
7973.375 2.306e-17 4.048e-18
7974.919 2.065e-17 4.469e-18
7976.464 2.589e-17 5.014e-18
7978.009 3.277e-17 5.184e-18
7979.553 2.483e-17 4.881e-18
7981.098 2.826e-17 4.643e-18
7982.642 2.231e-17 4.156e-18
7984.187 2.883e-17 3.945e-18
7985.73 2.341e-17 3.874e-18
7987.275 2.119e-17 4.016e-18
7988.82 2.843e-17 5.43e-18
7990.364 2.284e-17 6.239e-18
7991.909 3.149e-17 6.678e-18
7993.454 1.899e-17 6.402e-18
7994.999 3.006e-17 5.749e-18
7996.544 2.475e-17 4.679e-18
7998.088 2.032e-17 4.104e-18
7999.633 2.701e-17 3.869e-18
8001.177 2.878e-17 3.749e-18
8002.722 2.422e-17 3.667e-18
8004.266 2.616e-17 3.716e-18
8005.811 2.621e-17 3.715e-18
8007.356 2.303e-17 3.669e-18
8008.9 2.691e-17 4.052e-18
8010.445 3.142e-17 4.357e-18
8011.989 1.209e-17 4.444e-18
8013.534 1.523e-17 4.258e-18
8015.08 2.52e-17 4.352e-18
8016.624 2.781e-17 4.286e-18
8018.169 2.764e-17 4.105e-18
8019.713 2.753e-17 4.179e-18
8021.258 2.469e-17 4.749e-18
8022.802 2.383e-17 5.356e-18
8024.347 2.899e-17 5.812e-18
8025.893 2.041e-17 5.5e-18
8027.437 2.242e-17 5.116e-18
8028.982 1.943e-17 4.624e-18
8030.526 2.708e-17 3.894e-18
8032.071 2.064e-17 3.617e-18
8033.617 2.882e-17 3.674e-18
8035.161 2.532e-17 3.597e-18
8036.706 2.013e-17 3.448e-18
8038.25 2.323e-17 3.454e-18
8039.795 2.54e-17 3.492e-18
8041.34 1.931e-17 3.498e-18
8042.885 2.637e-17 3.573e-18
8044.43 2.453e-17 3.659e-18
8045.974 2.429e-17 3.576e-18
8047.52 2.73e-17 3.988e-18
8049.064 2.393e-17 3.995e-18
8050.609 2.245e-17 4.126e-18
8052.155 2.427e-17 4.105e-18
8053.699 2.362e-17 3.836e-18
8055.244 2.273e-17 3.653e-18
8056.789 2.767e-17 4.076e-18
8058.334 2.557e-17 4.306e-18
8059.878 2.502e-17 4.39e-18
8061.424 2.495e-17 4.626e-18
8062.969 2.038e-17 4.356e-18
8064.513 2.248e-17 3.828e-18
8066.059 1.475e-17 3.38e-18
8067.603 2.551e-17 3.557e-18
8069.148 2.357e-17 3.387e-18
8070.694 2.235e-17 3.442e-18
8072.238 1.792e-17 3.356e-18
8073.783 2.521e-17 3.496e-18
8075.328 2.566e-17 3.413e-18
8076.873 2.621e-17 3.465e-18
8078.418 2.53e-17 3.467e-18
8079.963 2.204e-17 3.503e-18
8081.509 2.435e-17 3.558e-18
8083.053 2.466e-17 3.535e-18
8084.598 2.308e-17 3.571e-18
8086.143 2.671e-17 3.512e-18
8087.688 2.334e-17 3.423e-18
8089.234 2.231e-17 3.462e-18
8090.778 1.828e-17 3.578e-18
8092.324 1.707e-17 3.531e-18
8093.868 2.174e-17 3.509e-18
8095.414 1.969e-17 3.473e-18
8096.958 2.828e-17 3.631e-18
8098.504 2.152e-17 3.516e-18
8100.049 1.706e-17 3.496e-18
8101.594 1.622e-17 3.859e-18
8103.139 1.943e-17 3.656e-18
8104.684 2.698e-17 3.693e-18
8106.229 2.091e-17 3.583e-18
8107.775 2.669e-17 3.583e-18
8109.319 2.061e-17 3.338e-18
8110.865 1.441e-17 3.23e-18
8112.409 1.746e-17 3.167e-18
8113.955 2.268e-17 3.286e-18
8115.5 2.179e-17 3.368e-18
8117.045 2.792e-17 3.487e-18
8118.591 2.444e-17 3.382e-18
8120.135 2.601e-17 3.507e-18
8121.681 2.472e-17 3.319e-18
8123.226 1.766e-17 3.379e-18
8124.771 2.245e-17 3.208e-18
8126.317 2.299e-17 3.323e-18
8127.861 2.361e-17 3.415e-18
8129.407 2.71e-17 3.578e-18
8130.952 2.084e-17 3.403e-18
8132.497 1.674e-17 3.281e-18
8134.042 2.266e-17 3.418e-18
8135.588 2.257e-17 3.569e-18
8137.133 2.359e-17 3.589e-18
8138.678 1.966e-17 3.663e-18
8140.224 1.971e-17 3.473e-18
8141.768 2.15e-17 3.505e-18
8143.314 2.717e-17 3.597e-18
8144.859 1.978e-17 3.679e-18
8146.404 2.52e-17 3.721e-18
8147.95 2.574e-17 3.723e-18
8149.495 2.352e-17 3.688e-18
8151.041 1.974e-17 3.384e-18
8152.585 2.484e-17 3.529e-18
8154.131 2.014e-17 3.382e-18
8155.677 2.109e-17 3.473e-18
8157.222 1.961e-17 3.3e-18
8158.767 1.76e-17 3.34e-18
8160.312 1.973e-17 3.56e-18
8161.858 2.87e-17 3.753e-18
8163.403 2.5e-17 3.695e-18
8164.948 2.417e-17 3.59e-18
8166.494 2.541e-17 3.597e-18
8168.039 2.178e-17 3.484e-18
8169.585 1.902e-17 3.366e-18
8171.13 2.095e-17 3.434e-18
8172.675 1.99e-17 3.349e-18
8174.221 2.491e-17 3.582e-18
8175.766 1.419e-17 3.374e-18
8177.312 2.239e-17 3.566e-18
8178.857 2.914e-17 3.844e-18
8180.403 1.999e-17 3.725e-18
8181.947 1.671e-17 3.462e-18
8183.493 2.69e-17 3.841e-18
8185.039 1.825e-17 3.567e-18
8186.584 2.101e-17 3.626e-18
8188.13 2.273e-17 3.786e-18
8189.675 1.268e-17 3.461e-18
8191.221 1.941e-17 3.579e-18
8192.766 2.655e-17 3.926e-18
8194.311 2.507e-17 3.947e-18
8195.857 2.01e-17 3.778e-18
8197.402 2.164e-17 3.719e-18
8198.948 2.485e-17 3.683e-18
8200.493 1.794e-17 3.473e-18
8202.039 2.307e-17 3.363e-18
8203.585 2.279e-17 3.462e-18
8205.13 2.107e-17 3.412e-18
8206.676 2.15e-17 3.411e-18
8208.221 2.521e-17 3.464e-18
8209.767 1.928e-17 3.305e-18
8211.313 1.555e-17 3.13e-18
8212.858 2.703e-17 3.591e-18
8214.404 1.751e-17 3.445e-18
8215.949 2.375e-17 3.47e-18
8217.494 2.082e-17 3.409e-18
8219.039 2.001e-17 3.467e-18
8220.585 2.961e-17 3.704e-18
8222.131 2.541e-17 3.661e-18
8223.676 2.246e-17 3.559e-18
8225.222 1.185e-17 3.565e-18
8226.768 1.808e-17 3.779e-18
8228.314 1.846e-17 3.9e-18
8229.86 2.486e-17 3.865e-18
8231.405 1.489e-17 3.634e-18
8232.951 2.161e-17 3.629e-18
8234.496 2.325e-17 3.632e-18
8236.042 2.443e-17 3.475e-18
8237.587 2.291e-17 3.523e-18
8239.133 2.316e-17 3.578e-18
8240.679 1.515e-17 3.34e-18
8242.224 1.984e-17 3.557e-18
8243.77 2.002e-17 3.473e-18
8245.315 2.532e-17 3.587e-18
8246.861 2.55e-17 3.58e-18
8248.407 2.574e-17 3.55e-18
8249.952 2.892e-17 3.573e-18
8251.499 2.457e-17 3.466e-18
8253.044 1.966e-17 3.618e-18
8254.59 2.485e-17 3.715e-18
8256.135 2.34e-17 3.598e-18
8257.681 2.612e-17 3.726e-18
8259.227 2.032e-17 3.251e-18
8260.772 1.686e-17 3.422e-18
8262.318 1.959e-17 3.544e-18
8263.864 2.059e-17 3.357e-18
8265.41 2.307e-17 3.527e-18
8266.955 2.05e-17 3.487e-18
8268.501 1.773e-17 3.401e-18
8270.047 2.354e-17 3.561e-18
8271.592 2.04e-17 3.652e-18
8273.139 2.302e-17 4.01e-18
8274.684 1.401e-17 4.249e-18
8276.23 1.922e-17 4.696e-18
8277.776 1.811e-17 5.25e-18
8279.321 1.702e-17 5.651e-18
8280.868 2.742e-17 5.654e-18
8282.413 3e-17 5.861e-18
8283.959 1.421e-17 5.647e-18
8285.504 3.214e-17 6.223e-18
8287.051 1.055e-17 6.217e-18
8288.597 2.319e-17 5.981e-18
8290.142 1.913e-17 5.59e-18
8291.688 2.296e-17 4.787e-18
8293.234 2.05e-17 5.159e-18
8294.78 2.746e-17 6.03e-18
8296.326 2.772e-17 6.475e-18
8297.871 1.431e-17 6.595e-18
8299.418 1.2e-17 6.167e-18
8300.963 2.524e-17 5.254e-18
8302.509 1.144e-17 4.111e-18
8304.054 2.594e-17 4.059e-18
8305.601 2.135e-17 4.014e-18
8307.147 2.579e-17 4.425e-18
8308.692 2.396e-17 4.831e-18
8310.239 1.804e-17 4.354e-18
8311.784 2.13e-17 4.427e-18
8313.33 1.487e-17 3.86e-18
8314.877 1.201e-17 3.474e-18
8316.422 1.891e-17 3.796e-18
8317.968 2.063e-17 3.718e-18
8319.514 1.555e-17 3.676e-18
8321.06 1.992e-17 3.637e-18
8322.605 1.748e-17 3.586e-18
8324.152 1.009e-17 3.33e-18
8325.698 1.999e-17 3.468e-18
8327.243 2.346e-17 3.633e-18
8328.79 2.62e-17 3.495e-18
8330.335 1.674e-17 3.544e-18
8331.882 2.087e-17 3.668e-18
8333.428 2.204e-17 3.581e-18
8334.973 2.561e-17 3.75e-18
8336.52 2.513e-17 4.003e-18
8338.065 1.801e-17 4.531e-18
8339.612 2.696e-17 6.133e-18
8341.157 6.085e-18 7.852e-18
8342.703 1.995e-17 8.826e-18
8344.25 2.809e-17 9.404e-18
8345.795 2.213e-17 7.974e-18
8347.342 1.832e-17 6.077e-18
8348.887 2.505e-17 5.846e-18
8350.434 2.579e-17 6.385e-18
8351.98 2.317e-17 5.899e-18
8353.525 2.469e-17 5.545e-18
8355.072 2.833e-17 4.867e-18
8356.617 1.584e-17 3.983e-18
8358.164 2.351e-17 4.054e-18
8359.709 1.234e-17 3.75e-18
8361.256 3.032e-17 4.532e-18
8362.802 1.9e-17 4.637e-18
8364.348 1.296e-17 4.34e-18
8365.894 2.246e-17 4.237e-18
8367.44 2.04e-17 3.928e-18
8368.986 2.142e-17 3.6e-18
8370.532 2.375e-17 3.526e-18
8372.078 2.515e-17 3.674e-18
8373.625 1.998e-17 3.528e-18
8375.17 2.293e-17 3.727e-18
8376.717 1.896e-17 3.875e-18
8378.262 1.396e-17 4.519e-18
8379.809 3.881e-17 5.263e-18
8381.355 2.216e-17 5.352e-18
8382.901 2.354e-17 5.031e-18
8384.447 1.915e-17 4.483e-18
8385.993 2.426e-17 3.864e-18
8387.54 2.255e-17 3.676e-18
8389.085 1.816e-17 3.605e-18
8390.632 2.189e-17 3.571e-18
8392.178 1.626e-17 3.591e-18
8393.724 1.103e-17 4.365e-18
8395.27 2.172e-17 6.495e-18
8396.816 3.42e-17 7.789e-18
8398.363 1.444e-17 7.479e-18
8399.909 2.478e-17 7.277e-18
8401.455 1.144e-17 5.641e-18
8403.001 2.07e-17 4.241e-18
8404.547 2.6e-17 3.81e-18
8406.094 1.804e-17 3.396e-18
8407.639 1.655e-17 3.434e-18
8409.186 2.174e-17 3.67e-18
8410.732 1.604e-17 4.472e-18
8412.278 2.643e-17 5.207e-18
8413.825 1.699e-17 5.312e-18
8415.37 2.263e-17 5.343e-18
8416.917 1.785e-17 4.765e-18
8418.464 2.312e-17 4.016e-18
8420.009 2.743e-17 3.761e-18
8421.556 2.533e-17 3.665e-18
8423.102 1.934e-17 3.645e-18
8424.648 1.994e-17 4.775e-18
8426.194 1.727e-17 6.657e-18
8427.741 9.263e-18 7.683e-18
8429.287 2.324e-17 7.955e-18
8430.833 2.129e-17 7.653e-18
8432.38 1.984e-17 6.09e-18
8433.925 2.278e-17 4.4e-18
8435.472 1.996e-17 3.756e-18
8437.019 2.361e-17 3.495e-18
8438.564 2.317e-17 3.482e-18
8440.111 1.946e-17 3.317e-18
8441.657 1.62e-17 3.35e-18
8443.203 2.052e-17 3.418e-18
8444.749 2.068e-17 3.338e-18
8446.296 2.061e-17 3.613e-18
8447.843 2.528e-17 4.276e-18
8449.388 2.178e-17 4.972e-18
8450.935 2.1e-17 5.003e-18
8452.481 2.632e-17 4.998e-18
8454.028 2.588e-17 4.488e-18
8455.574 2.435e-17 3.785e-18
8457.12 2.267e-17 3.527e-18
8458.667 2.036e-17 3.588e-18
8460.213 1.717e-17 4.618e-18
8461.759 1.587e-17 6.002e-18
8463.305 2.628e-17 6.842e-18
8464.852 2.451e-17 6.941e-18
8466.399 1.018e-17 5.879e-18
8467.944 2.036e-17 4.763e-18
8469.491 1.813e-17 3.824e-18
8471.037 1.491e-17 3.468e-18
8472.584 1.903e-17 3.521e-18
8474.13 1.997e-17 3.606e-18
8475.676 2.119e-17 3.621e-18
8477.223 2.676e-17 3.781e-18
8478.769 5.319e-17 3.854e-18
8480.316 2.397e-17 3.612e-18
8481.862 2.296e-17 3.353e-18
8483.408 2.279e-17 3.336e-18
8484.955 2.199e-17 3.541e-18
8486.501 2.305e-17 3.462e-18
8488.048 2.229e-17 3.676e-18
8489.594 1.866e-17 4.008e-18
8491.14 3.052e-17 4.511e-18
8492.686 1.367e-17 4.427e-18
8494.233 1.901e-17 4.357e-18
8495.78 2.118e-17 3.975e-18
8497.326 1.938e-17 3.551e-18
8498.873 2.208e-17 3.772e-18
8500.419 2.14e-17 4.57e-18
8501.965 1.636e-17 5.246e-18
8503.512 1.101e-17 5.383e-18
8505.058 2.285e-17 5.371e-18
8506.605 9.908e-18 4.394e-18
8508.151 1.59e-17 3.666e-18
8509.698 2e-17 3.47e-18
8511.244 2.356e-17 3.328e-18
8512.791 2.221e-17 3.26e-18
8514.337 1.862e-17 3.226e-18
8515.883 2.061e-17 3.494e-18
8517.43 1.864e-17 3.277e-18
8518.976 2.259e-17 3.434e-18
8520.523 2.057e-17 3.316e-18
8522.07 1.938e-17 3.332e-18
8523.616 2.596e-17 3.34e-18
8525.163 2.368e-17 3.407e-18
8526.709 2.392e-17 3.454e-18
8528.256 2.66e-17 3.517e-18
8529.802 2.142e-17 3.341e-18
8531.348 1.62e-17 3.178e-18
8532.895 1.616e-17 3.348e-18
8534.441 1.825e-17 3.585e-18
8535.988 2.305e-17 3.706e-18
8537.534 1.16e-17 3.626e-18
8539.081 2.011e-17 3.78e-18
8540.628 2.182e-17 3.673e-18
8542.174 2.147e-17 3.376e-18
8543.721 2.594e-17 3.828e-18
8545.267 2.074e-17 4.012e-18
8546.814 2.522e-17 4.289e-18
8548.36 2.51e-17 4.518e-18
8549.907 1.983e-17 4.215e-18
8551.454 1.389e-17 3.575e-18
8553.0 2.404e-17 3.449e-18
8554.547 2.37e-17 3.387e-18
8556.093 2.684e-17 3.354e-18
8557.64 1.875e-17 3.17e-18
8559.186 1.565e-17 3.385e-18
8560.733 2.679e-17 3.325e-18
8562.28 2.129e-17 3.39e-18
8563.826 2.469e-17 3.464e-18
8565.373 2.136e-17 3.339e-18
8566.919 1.971e-17 3.309e-18
8568.466 1.563e-17 3.332e-18
8570.013 1.621e-17 3.245e-18
8571.559 2.164e-17 3.365e-18
8573.106 3.07e-17 3.772e-18
8574.652 1.758e-17 3.368e-18
8576.199 2.167e-17 3.437e-18
8577.745 2.207e-17 3.464e-18
8579.292 2.102e-17 3.349e-18
8580.839 2.443e-17 3.424e-18
8582.385 2.417e-17 3.516e-18
8583.932 1.777e-17 3.441e-18
8585.478 2.59e-17 3.864e-18
8587.025 2.434e-17 3.714e-18
8588.572 1.603e-17 3.592e-18
8590.118 1.678e-17 3.485e-18
8591.665 2.745e-17 3.614e-18
8593.211 2.225e-17 3.826e-18
8594.758 1.789e-17 3.737e-18
8596.304 1.978e-17 3.765e-18
8597.851 2.296e-17 3.829e-18
8599.399 2.487e-17 3.68e-18
8600.945 2.269e-17 3.515e-18
8602.492 1.52e-17 3.507e-18
8604.038 1.883e-17 3.463e-18
8605.585 1.914e-17 3.384e-18
8607.132 2.02e-17 3.475e-18
8608.678 1.562e-17 3.533e-18
8610.225 1.867e-17 3.558e-18
8611.771 2.086e-17 3.615e-18
8613.318 1.946e-17 3.823e-18
8614.864 1.762e-17 3.812e-18
8616.411 2.385e-17 4.07e-18
8617.959 2.769e-17 4.365e-18
8619.505 1.619e-17 4.166e-18
8621.052 1.868e-17 4.395e-18
8622.598 2.049e-17 4.443e-18
8624.145 2.391e-17 4.925e-18
8625.691 2.723e-17 5.019e-18
8627.238 1.279e-17 4.876e-18
8628.785 2.338e-17 5.046e-18
8630.332 1.604e-17 4.731e-18
8631.879 1.744e-17 4.799e-18
8633.425 2.058e-17 4.956e-18
8634.972 3.086e-17 4.821e-18
8636.519 2.338e-17 4.489e-18
8638.065 1.9e-17 4.413e-18
8639.612 2.508e-17 4.314e-18
8641.158 1.653e-17 3.876e-18
8642.706 2.239e-17 3.946e-18
8644.252 1.822e-17 3.817e-18
8645.799 1.646e-17 4.05e-18
8647.346 2.591e-17 4.785e-18
8648.892 2.45e-17 4.836e-18
8650.439 2.02e-17 4.836e-18
8651.986 1.852e-17 5.114e-18
8653.533 2.456e-17 5.155e-18
8655.08 1.935e-17 4.944e-18
8656.626 2.336e-17 5.024e-18
8658.173 1.294e-17 4.773e-18
8659.719 2.349e-17 5.005e-18
8661.267 1.316e-17 4.814e-18
8662.813 1.796e-17 4.755e-18
8664.36 1.534e-17 4.65e-18
8665.907 2.145e-17 4.686e-18
8667.453 1.994e-17 4.661e-18
8669.001 1.66e-17 4.522e-18
8670.547 2.905e-17 4.611e-18
8672.094 2.573e-17 4.563e-18
8673.641 1.912e-17 4.114e-18
8675.187 1.773e-17 4.118e-18
8676.735 1.934e-17 3.947e-18
8678.281 2.243e-17 4.181e-18
8679.828 1.956e-17 3.954e-18
8681.374 2.768e-17 4.168e-18
8682.921 1.495e-17 3.833e-18
8684.469 2.275e-17 3.778e-18
8686.015 1.931e-17 3.707e-18
8687.562 2.513e-17 3.946e-18
8689.108 2.103e-17 3.835e-18
8690.656 1.819e-17 3.589e-18
8692.203 1.656e-17 3.578e-18
8693.749 1.484e-17 3.482e-18
8695.296 3.362e-17 3.885e-18
8696.842 1.872e-17 3.756e-18
8698.39 2.281e-17 3.703e-18
8699.936 2.246e-17 3.752e-18
8701.483 2.44e-17 3.801e-18
8703.03 2.118e-17 3.806e-18
8704.577 2.347e-17 3.906e-18
8706.124 2.801e-17 3.945e-18
8707.67 2.048e-17 3.743e-18
8709.217 2.245e-17 3.644e-18
8710.764 2.507e-17 3.679e-18
8712.311 1.914e-17 3.663e-18
8713.858 2.225e-17 3.642e-18
8715.404 2.098e-17 3.553e-18
8716.952 2.671e-17 3.739e-18
8718.498 1.798e-17 3.487e-18
8720.045 1.993e-17 3.45e-18
8721.592 2.271e-17 3.692e-18
8723.139 1.264e-17 3.439e-18
8724.686 2.591e-17 3.708e-18
8726.232 2.037e-17 3.568e-18
8727.78 2.258e-17 3.71e-18
8729.326 1.877e-17 3.554e-18
8730.873 2.223e-17 3.604e-18
8732.42 2.744e-17 3.722e-18
8733.967 1.516e-17 3.5e-18
8735.514 1.987e-17 3.621e-18
8737.06 2.293e-17 3.635e-18
8738.608 2.822e-17 3.829e-18
8740.155 2.28e-17 3.701e-18
8741.701 1.759e-17 3.585e-18
8743.248 1.911e-17 3.633e-18
8744.795 2.331e-17 3.696e-18
8746.342 2.42e-17 3.632e-18
8747.888 1.906e-17 3.577e-18
8749.436 2.869e-17 3.743e-18
8750.983 2.237e-17 3.882e-18
8752.529 2.428e-17 3.786e-18
8754.077 1.673e-17 3.916e-18
8755.623 1.539e-17 4.89e-18
8757.17 2.186e-17 6.255e-18
8758.718 9.79e-18 6.888e-18
8760.264 3.17e-17 7.372e-18
8761.811 2.711e-17 7.055e-18
8763.357 2.808e-17 7.358e-18
8764.905 3.678e-17 7.769e-18
8766.451 2.248e-17 7.797e-18
8767.998 1.929e-17 7.279e-18
8769.546 2.059e-17 6.084e-18
8771.092 1.233e-17 4.958e-18
8772.639 2.741e-17 5.692e-18
8774.186 2.679e-17 7.41e-18
8775.733 1.597e-17 8.182e-18
8777.279 2.009e-17 8.328e-18
8778.827 1.195e-17 7.114e-18
8780.374 2.435e-17 5.6e-18
8781.92 1.531e-17 4.165e-18
8783.468 2.099e-17 3.816e-18
8785.014 2.022e-17 3.821e-18
8786.561 1.929e-17 4.583e-18
8788.109 1.333e-17 5.195e-18
8789.655 2.236e-17 5.46e-18
8791.203 2.113e-17 5.383e-18
8792.749 1.8e-17 4.748e-18
8794.296 1.817e-17 3.816e-18
8795.843 2.484e-17 3.859e-18
8797.39 2.322e-17 3.641e-18
8798.937 1.499e-17 3.37e-18
8800.484 1.61e-17 3.341e-18
8802.031 2.002e-17 3.466e-18
8803.577 1.731e-17 3.43e-18
8805.125 1.698e-17 3.56e-18
8806.672 2.196e-17 3.757e-18
8808.218 2.514e-17 3.855e-18
8809.766 2.22e-17 3.742e-18
8811.312 1.724e-17 3.57e-18
8812.86 2.205e-17 3.526e-18
8814.406 1.646e-17 3.53e-18
8815.953 1.976e-17 3.588e-18
8817.501 2.483e-17 3.699e-18
8819.047 2.177e-17 3.69e-18
8820.594 2.269e-17 4.664e-18
8822.141 9.091e-18 7.318e-18
8823.688 4.134e-17 1.022e-17
8825.236 6.038e-18 1.081e-17
8826.782 2.212e-17 1.066e-17
8828.329 5.068e-17 9.629e-18
8829.876 2.378e-17 6.416e-18
8831.423 5.776e-18 5.538e-18
8832.97 9.047e-18 6.872e-18
8834.517 3.163e-17 7.349e-18
8836.064 2.102e-17 6.927e-18
8837.611 1.326e-17 6.176e-18
8839.158 1.574e-17 4.522e-18
8840.704 2.272e-17 3.912e-18
8842.252 1.691e-17 3.579e-18
8843.798 1.816e-17 3.782e-18
8845.346 2.734e-17 4.469e-18
8846.893 1.498e-17 4.727e-18
8848.439 1.706e-17 4.591e-18
8849.987 2.925e-17 4.904e-18
8851.533 1.736e-17 4.219e-18
8853.081 1.908e-17 3.73e-18
8854.628 1.658e-17 3.488e-18
8856.174 2.187e-17 3.515e-18
8857.722 1.388e-17 3.42e-18
8859.268 1.875e-17 3.54e-18
8860.816 1.598e-17 3.753e-18
8862.362 2.079e-17 4.301e-18
8863.91 2.079e-17 5.403e-18
8865.457 2.981e-17 6.21e-18
8867.003 1.859e-17 5.85e-18
8868.551 2.297e-17 5.477e-18
8870.097 1.863e-17 4.33e-18
8871.645 1.506e-17 3.452e-18
8873.192 1.487e-17 3.221e-18
8874.738 1.493e-17 3.268e-18
8876.286 1.458e-17 3.455e-18
8877.832 1.565e-17 3.416e-18
8879.38 1.303e-17 3.595e-18
8880.926 1.329e-17 5.826e-18
8882.474 3.379e-17 8.571e-18
8884.021 -5.973e-18 9.057e-18
8885.567 3.372e-17 9.264e-18
8887.115 2.206e-17 7.856e-18
8888.661 2.584e-17 5.192e-18
8890.209 1.879e-17 3.981e-18
8891.756 1.428e-17 3.507e-18
8893.302 1.943e-17 3.602e-18
8894.85 1.923e-17 3.555e-18
8896.396 2.207e-17 3.661e-18
8897.944 1.345e-17 4.31e-18
8899.49 2.828e-17 5.88e-18
8901.038 1.711e-17 6.3e-18
8902.585 1.493e-17 6.186e-18
8904.131 1.329e-17 5.777e-18
8905.679 1.311e-17 4.302e-18
8907.225 2.199e-17 3.786e-18
8908.773 1.937e-17 3.686e-18
8910.319 2.114e-17 3.614e-18
8911.867 2.058e-17 3.607e-18
8913.414 8.208e-18 3.836e-18
8914.961 1.417e-17 6.622e-18
8916.508 2.38e-17 9.149e-18
8918.054 1.59e-17 9.46e-18
8919.602 2.929e-17 9.446e-18
8921.149 1.991e-17 7.808e-18
8922.696 2.218e-17 4.849e-18
8924.243 1.788e-17 3.84e-18
8925.79 1.865e-17 3.715e-18
8927.337 1.549e-17 3.487e-18
8928.883 1.804e-17 3.633e-18
8930.431 2.022e-17 3.613e-18
8931.978 1.946e-17 3.484e-18
8933.525 2.22e-17 3.533e-18
8935.072 1.62e-17 3.586e-18
8936.619 1.766e-17 3.421e-18
8938.166 1.937e-17 3.912e-18
8939.714 3.21e-17 5.557e-18
8941.26 2.096e-17 5.846e-18
8942.807 2.513e-17 6.03e-18
8944.354 1.455e-17 5.712e-18
8945.901 1.314e-17 4.108e-18
8947.448 2.062e-17 3.438e-18
8948.995 1.752e-17 3.529e-18
8950.543 2.696e-17 3.627e-18
8952.089 1.565e-17 3.939e-18
8953.637 2.106e-17 6.728e-18
8955.183 2.292e-17 8.714e-18
8956.731 4.403e-18 8.37e-18
8958.278 1.42e-17 8.206e-18
8959.824 2.136e-17 6.696e-18
8961.372 1.189e-17 4.319e-18
8962.918 1.717e-17 3.81e-18
8964.466 1.885e-17 3.693e-18
8966.012 1.599e-17 3.365e-18
8967.56 1.295e-17 3.702e-18
8969.107 1.518e-17 3.672e-18
8970.654 2.175e-17 3.825e-18
8972.201 1.792e-17 3.665e-18
8973.747 1.586e-17 3.512e-18
8975.295 1.485e-17 3.476e-18
8976.841 1.659e-17 3.531e-18
8978.389 1.844e-17 3.807e-18
8979.936 2.037e-17 3.766e-18
8981.483 1.888e-17 3.83e-18
8983.03 2.773e-17 4.369e-18
8984.577 7.776e-18 5.112e-18
8986.124 2.613e-17 5.805e-18
8987.672 2.166e-17 6.257e-18
8989.218 1.805e-17 6.241e-18
8990.765 1.625e-17 4.69e-18
8992.312 2.534e-17 4.253e-18
8993.859 1.623e-17 3.613e-18
8995.406 1.682e-17 3.717e-18
8996.953 2.009e-17 5.575e-18
8998.501 1.889e-17 6.999e-18
9000.047 8.041e-18 7.065e-18
9001.595 2.273e-17 7.407e-18
9003.141 2.863e-17 5.925e-18
9004.689 1.964e-17 4.253e-18
9006.236 1.857e-17 3.696e-18
9007.782 1.82e-17 3.661e-18
9009.33 2.209e-17 3.611e-18
9010.876 1.696e-17 3.36e-18
9012.424 2.161e-17 3.557e-18
9013.97 1.953e-17 3.741e-18
9015.518 1.644e-17 3.525e-18
9017.065 2.147e-17 3.91e-18
9018.612 1.244e-17 3.676e-18
9020.159 2.034e-17 3.788e-18
9021.706 1.964e-17 3.737e-18
9023.253 1.539e-17 3.767e-18
9024.8 1.984e-17 3.844e-18
9026.347 2.271e-17 3.762e-18
9027.894 1.644e-17 3.586e-18
9029.441 1.522e-17 3.448e-18
9030.988 1.754e-17 3.306e-18
9032.535 2.158e-17 3.712e-18
9034.082 1.826e-17 4.103e-18
9035.63 2.035e-17 4.435e-18
9037.176 1.915e-17 4.541e-18
9038.723 1.22e-17 4.268e-18
9040.27 1.328e-17 3.895e-18
9041.817 2.212e-17 3.78e-18
9043.364 1.492e-17 3.467e-18
9044.911 2.159e-17 4.217e-18
9046.459 3.139e-17 5.329e-18
9048.005 1.274e-17 5.014e-18
9049.553 1.252e-17 5.088e-18
9051.099 1.941e-17 4.836e-18
9052.647 1.575e-17 3.834e-18
9054.194 1.524e-17 3.635e-18
9055.74 2.469e-17 3.64e-18
9057.288 1.139e-17 3.331e-18
9058.834 1.874e-17 3.659e-18
9060.382 1.851e-17 3.677e-18
9061.928 1.723e-17 3.581e-18
9063.476 1.547e-17 3.521e-18
9065.023 2.003e-17 3.833e-18
9066.57 1.641e-17 3.843e-18
9068.117 1.353e-17 3.953e-18
9069.663 1.344e-17 3.862e-18
9071.211 1.828e-17 3.934e-18
9072.758 1.568e-17 3.631e-18
9074.305 1.462e-17 3.56e-18
9075.852 1.93e-17 3.683e-18
9077.399 1.447e-17 3.847e-18
9078.946 1.507e-17 3.653e-18
9080.492 1.634e-17 3.761e-18
9082.04 2.246e-17 3.874e-18
9083.587 2.12e-17 3.78e-18
9085.134 2.095e-17 3.765e-18
9086.681 1.161e-17 3.867e-18
9088.228 1.556e-17 3.841e-18
9089.775 1.63e-17 3.961e-18
9091.322 1.155e-17 4.121e-18
9092.869 1.249e-17 4.07e-18
9094.416 1.485e-17 3.94e-18
9095.963 1.922e-17 3.889e-18
9097.51 1.685e-17 4.218e-18
9099.057 1.673e-17 4.66e-18
9100.604 2.409e-17 5.064e-18
9102.152 2.822e-17 5.096e-18
9103.698 2.425e-17 4.756e-18
9105.245 2.125e-17 4.175e-18
9106.792 1.93e-17 3.914e-18
9108.339 1.886e-17 3.781e-18
9109.886 1.589e-17 3.692e-18
9111.433 1.968e-17 3.649e-18
9112.981 1.385e-17 3.619e-18
9114.527 1.335e-17 3.575e-18
9116.074 1.588e-17 3.977e-18
9117.621 1.524e-17 3.855e-18
9119.168 1.834e-17 3.82e-18
9120.716 2.044e-17 3.771e-18
9122.262 2.041e-17 3.608e-18
9123.809 2.116e-17 3.639e-18
9125.356 1.284e-17 3.628e-18
9126.903 1.908e-17 3.897e-18
9128.45 1.96e-17 4.171e-18
9129.997 1.872e-17 4.089e-18
9131.545 1.595e-17 4.207e-18
9133.091 1.86e-17 3.971e-18
9134.638 1.884e-17 4.257e-18
9136.185 1.484e-17 4.074e-18
9137.732 1.315e-17 3.793e-18
9139.28 1.653e-17 3.567e-18
9140.826 1.558e-17 3.89e-18
9142.373 1.516e-17 3.592e-18
9143.92 2.248e-17 3.874e-18
9145.467 1.564e-17 3.583e-18
9147.014 2.351e-17 4.061e-18
9148.561 2.698e-17 4.373e-18
9150.108 1.402e-17 4.393e-18
9151.655 8.976e-18 4.577e-18
9153.202 2.197e-17 4.895e-18
9154.749 1.78e-17 4.445e-18
9156.296 1.844e-17 4.453e-18
9157.842 9.336e-18 4.482e-18
9159.39 1.252e-17 4.229e-18
9160.937 6.41e-18 4.222e-18
9162.484 1.758e-17 4.064e-18
9164.031 1.449e-17 3.616e-18
9165.577 1.803e-17 3.939e-18
9167.125 1.812e-17 3.801e-18
9168.672 1.462e-17 3.712e-18
9170.218 1.325e-17 3.901e-18
9171.766 2.324e-17 4.185e-18
9173.312 8.744e-18 3.871e-18
9174.86 2.626e-17 4.388e-18
9176.406 1.214e-17 3.822e-18
9177.953 2.341e-17 4.028e-18
9179.501 1.499e-17 3.753e-18
9181.047 2.084e-17 3.892e-18
9182.594 1.368e-17 3.897e-18
9184.141 1.963e-17 3.785e-18
9185.688 1.421e-17 3.76e-18
9187.236 2.041e-17 3.873e-18
9188.782 1.796e-17 3.565e-18
9190.329 1.44e-17 3.594e-18
9191.876 1.742e-17 3.908e-18
9193.423 1.317e-17 3.649e-18
9194.969 1.695e-17 3.837e-18
9196.517 2.141e-17 3.822e-18
9198.064 1.528e-17 3.833e-18
9199.61 2.279e-17 3.723e-18
9201.158 1.923e-17 3.617e-18
9202.704 1.222e-17 3.779e-18
9204.252 2.198e-17 3.751e-18
9205.799 1.895e-17 3.916e-18
9207.345 1.649e-17 3.896e-18
9208.893 1.17e-17 3.556e-18
9210.439 1.923e-17 3.908e-18
9211.986 2.003e-17 4.051e-18
9213.533 2.17e-17 4.303e-18
9215.08 1.753e-17 4.635e-18
9216.627 1.444e-17 4.463e-18
9218.174 1.831e-17 4.016e-18
9219.721 2.225e-17 3.94e-18
9221.267 1.206e-17 4.249e-18
9222.815 1.762e-17 4.27e-18
9224.361 2.187e-17 4.325e-18
9225.908 2.628e-17 4.383e-18
9227.456 1.573e-17 3.948e-18
9229.002 2.04e-17 3.757e-18
9230.549 2.45e-17 3.999e-18
9232.096 1.605e-17 3.833e-18
9233.643 9.793e-18 3.624e-18
9235.19 6.986e-18 3.722e-18
9236.737 2.258e-17 3.981e-18
9238.284 2.288e-17 3.844e-18
9239.83 2.014e-17 4.026e-18
9241.377 1.828e-17 3.879e-18
9242.924 1.909e-17 3.897e-18
9244.471 2.416e-17 4.081e-18
9246.018 1.687e-17 4.192e-18
9247.565 1.58e-17 4.112e-18
9249.112 1.221e-17 3.734e-18
9250.658 2.034e-17 4.16e-18
9252.206 1.657e-17 3.882e-18
9253.753 1.372e-17 3.686e-18
9255.299 1.643e-17 3.851e-18
9256.846 1.7e-17 3.801e-18
9258.393 2.212e-17 3.885e-18
9259.94 2.015e-17 3.892e-18
9261.486 2.222e-17 4.023e-18
9263.034 1.921e-17 3.826e-18
9264.581 1.938e-17 3.948e-18
9266.127 2.46e-17 3.855e-18
9267.674 1.53e-17 3.727e-18
9269.221 1.753e-17 3.868e-18
9270.768 1.337e-17 3.859e-18
9272.314 1.568e-17 3.739e-18
9273.862 1.823e-17 3.777e-18
9275.409 6.065e-18 3.747e-18
9276.955 1.85e-17 4.015e-18
9278.502 2.555e-17 4.293e-18
9280.049 2.439e-17 4.152e-18
9281.596 1.585e-17 4.195e-18
9283.143 2.14e-17 4.49e-18
9284.689 1.202e-17 4.409e-18
9286.237 1.472e-17 4.335e-18
9287.783 1.196e-17 3.935e-18
9289.33 2.24e-17 4.425e-18
9290.876 1.79e-17 4.588e-18
9292.424 1.532e-17 4.5e-18
9293.971 2.171e-17 4.866e-18
9295.517 2.282e-17 4.937e-18
9297.064 2.766e-17 4.612e-18
9298.611 1.569e-17 4.74e-18
9300.158 1.872e-17 5.039e-18
9301.705 2.18e-17 7.035e-18
9303.251 2.015e-17 8.854e-18
9304.799 4.245e-19 9.769e-18
9306.345 1.495e-17 1.103e-17
9307.892 7.835e-18 1.205e-17
9309.438 3.965e-17 1.383e-17
9310.985 1.398e-17 1.292e-17
9312.533 2.47e-17 1.326e-17
9314.079 3.742e-17 1.477e-17
9315.626 -1.051e-17 1.07e-17
9317.172 9.862e-18 7.377e-18
9318.72 1.521e-17 9.301e-18
9320.267 4.298e-17 1.215e-17
9321.813 -3.575e-18 1.3e-17
9323.36 5.01e-17 1.478e-17
9324.906 2.42e-17 1.238e-17
9326.454 2.212e-17 6.963e-18
9328.0 1.103e-17 5.597e-18
9329.547 1.283e-17 5.673e-18
9331.094 9.86e-18 5.984e-18
9332.64 8.001e-18 7.155e-18
9334.187 1.141e-17 9.057e-18
9335.734 6.777e-18 9.031e-18
9337.281 2.091e-17 8.823e-18
9338.827 2.137e-17 9.061e-18
9340.374 -2.449e-18 7.458e-18
9341.921 1.818e-17 9.536e-18
9343.467 1.23e-17 9.612e-18
9345.015 1.224e-17 7.315e-18
9346.561 1.105e-17 5.343e-18
9348.108 1.725e-17 5.083e-18
9349.655 1.349e-17 5.257e-18
9351.201 1.246e-17 5.924e-18
9352.748 5.468e-18 6.147e-18
9354.295 3.76e-18 7.214e-18
9355.842 1.898e-17 7.629e-18
9357.388 5.151e-18 6.254e-18
9358.935 1.88e-17 6.089e-18
9360.482 1.792e-17 5.171e-18
9362.028 1.817e-17 5.139e-18
9363.575 9.741e-18 5.789e-18
9365.122 5.487e-18 5.918e-18
9366.669 5.324e-18 6.607e-18
9368.216 5.725e-18 7.801e-18
9369.762 -3.143e-19 1.059e-17
9371.309 -1.166e-17 1.692e-17
9372.855 1.909e-17 1.909e-17
9374.402 1.875e-17 2.002e-17
9375.948 -1.569e-17 2.004e-17
9377.495 2.115e-17 1.922e-17
9379.043 2.486e-18 1.153e-17
9380.589 6.721e-18 7.342e-18
9382.136 2.212e-17 6.704e-18
9383.682 1.293e-17 5.943e-18
9385.229 1.785e-17 5.227e-18
9386.775 5.895e-18 4.689e-18
9388.322 1.576e-17 4.601e-18
9389.869 2.059e-17 4.275e-18
9391.415 1.829e-17 4.154e-18
9392.962 1.022e-17 4.152e-18
9394.508 1.977e-17 4.466e-18
9396.056 1.298e-17 4.729e-18
9397.603 2.68e-17 6.389e-18
9399.149 2.41e-19 7.097e-18
9400.696 7.085e-18 7.233e-18
9402.242 1.541e-17 6.734e-18
9403.789 1.989e-17 5.756e-18
9405.335 1.083e-17 4.629e-18
9406.882 2.113e-17 4.866e-18
9408.429 1.669e-17 4.862e-18
9409.975 1.599e-17 5.132e-18
9411.522 1.424e-17 4.509e-18
9413.068 1.381e-17 4.774e-18
9414.615 1.449e-17 5.888e-18
9416.162 2.855e-17 8.622e-18
9417.708 -8.493e-20 9.136e-18
9419.255 1.451e-17 9.001e-18
9420.801 7.822e-18 7.689e-18
9422.348 8.492e-18 5.831e-18
9423.894 1.322e-17 5.766e-18
9425.441 3.41e-18 6.744e-18
9426.988 1.628e-17 7.123e-18
9428.534 1.17e-17 6.329e-18
9430.081 1.831e-17 5.469e-18
9431.627 1.704e-17 4.668e-18
9433.174 6.888e-18 4.938e-18
9434.721 5.931e-18 8.242e-18
9436.267 1.898e-17 1.413e-17
9437.814 2.214e-17 1.914e-17
9439.36 8.369e-18 2.126e-17
9440.907 1.137e-17 1.739e-17
9442.453 -4.183e-18 9.32e-18
9444.0 3.273e-18 5.874e-18
9445.547 1.87e-17 5.481e-18
9447.093 1.7e-17 5.301e-18
9448.64 1.07e-17 4.87e-18
9450.186 1.331e-17 4.969e-18
9451.733 1.352e-17 5.434e-18
9453.279 9.814e-18 7.298e-18
9454.826 5.045e-17 1.202e-17
9456.373 6.976e-18 1.256e-17
9457.919 -5.655e-19 1.311e-17
9459.466 2.618e-17 1.201e-17
9461.012 1.679e-17 8.002e-18
9462.559 1.3e-17 5.239e-18
9464.106 1.138e-17 4.825e-18
9465.652 1.255e-17 4.792e-18
9467.199 1.6e-17 5.531e-18
9468.744 2.075e-17 5.473e-18
9470.291 1.285e-17 5.031e-18
9471.837 5.756e-18 8.359e-18
9473.384 4.792e-17 1.25e-17
9474.931 -6.94e-18 1.308e-17
9476.477 1.113e-17 1.314e-17
9478.024 2.864e-17 1.317e-17
9479.57 1.706e-17 9.588e-18
9481.117 1.115e-17 6.945e-18
9482.664 4.39e-18 5.383e-18
9484.209 1.635e-17 4.815e-18
9485.756 6.808e-18 4.525e-18
9487.302 7.283e-18 4.329e-18
9488.849 9.371e-18 4.613e-18
9490.395 1.367e-17 5.12e-18
9491.942 1.665e-17 5.95e-18
9493.489 6.768e-18 6.446e-18
9495.035 1.279e-17 6.306e-18
9496.581 5.287e-18 6.605e-18
9498.127 1.197e-17 1.035e-17
9499.674 1.634e-17 1.313e-17
9501.22 2.136e-17 1.178e-17
9502.767 4.906e-18 8.944e-18
9504.314 2.103e-17 6.9e-18
9505.86 1.198e-17 4.962e-18
9507.406 6.547e-18 4.079e-18
9508.952 1.789e-17 4.395e-18
9510.499 1.657e-17 4.409e-18
9512.046 1.572e-17 4.689e-18
9513.592 6.806e-18 5.218e-18
9515.138 1.499e-17 7.205e-18
9516.684 2.186e-18 9.044e-18
9518.231 2.15e-17 9.932e-18
9519.777 1.245e-17 8.704e-18
9521.324 6.837e-18 7.429e-18
9522.87 1.255e-19 5.707e-18
9524.416 2.404e-17 5.795e-18
9525.963 8.73e-18 5.259e-18
9527.509 1.74e-17 5.854e-18
9529.056 1.573e-17 5.13e-18
9530.602 1.323e-17 5.022e-18
9532.148 9.193e-18 4.873e-18
9533.695 8.035e-18 5.426e-18
9535.241 2.472e-17 5.778e-18
9536.787 1.01e-17 5.456e-18
9538.333 1.82e-17 5.23e-18
9539.88 1.098e-17 4.913e-18
9541.427 9.85e-18 5.396e-18
9542.972 2.751e-18 5.453e-18
9544.519 2.368e-17 6.042e-18
9546.065 1.268e-17 5.135e-18
9547.612 2.143e-18 5.74e-18
9549.158 2.417e-17 7.626e-18
9550.704 2.487e-17 8.659e-18
9552.251 1.742e-17 9.313e-18
9553.796 1.359e-17 9.332e-18
9555.343 2.153e-18 6.486e-18
9556.889 2.098e-17 6.321e-18
9558.436 1.578e-17 5.83e-18
9559.982 1.455e-17 5.167e-18
9561.528 4e-18 6.276e-18
9563.075 1.175e-17 1.049e-17
9564.62 -4.667e-18 1.291e-17
9566.167 1.452e-17 1.267e-17
9567.713 -5.972e-18 1.136e-17
9569.259 9.373e-18 8.29e-18
9570.806 1.074e-17 5.631e-18
9572.352 9.923e-18 4.891e-18
9573.898 2.171e-17 4.689e-18
9575.444 1.331e-17 4.557e-18
9576.991 4.842e-18 5.072e-18
9578.537 1.589e-17 5.648e-18
9580.083 7.328e-18 5.702e-18
9581.63 6.591e-18 4.966e-18
9583.175 1.325e-17 4.785e-18
9584.722 1.61e-17 4.766e-18
9586.267 1.254e-17 5.523e-18
9587.814 -1.518e-19 5.495e-18
9589.361 1.085e-17 6.119e-18
9590.906 4.495e-18 5.534e-18
9592.453 6.45e-18 5.827e-18
9593.998 1.808e-17 5.489e-18
9595.545 8.1e-18 4.935e-18
9597.092 1.106e-17 5.06e-18
9598.637 1.214e-17 4.639e-18
9600.184 1.698e-17 4.728e-18
9601.729 1.611e-17 5.362e-18
9603.276 1.886e-17 6.321e-18
9604.822 9.157e-18 7.183e-18
9606.368 1.272e-17 7.211e-18
9607.915 1.045e-17 6.237e-18
9609.46 1.763e-17 5.848e-18
9611.007 1.852e-17 5.191e-18
9612.552 2.121e-17 5.213e-18
9614.099 1.128e-17 5.018e-18
9615.645 2.026e-17 6.172e-18
9617.191 1.297e-17 7.228e-18
9618.737 1.096e-17 7.435e-18
9620.283 1.902e-19 7.87e-18
9621.829 2.1e-17 7.734e-18
9623.375 1.639e-17 5.995e-18
9624.921 1.471e-17 5.995e-18
9626.468 9.788e-18 5.483e-18
9628.013 9.86e-18 5.136e-18
9629.56 1.009e-17 4.717e-18
9631.105 1.153e-17 4.792e-18
9632.652 1.119e-17 4.778e-18
9634.197 5.341e-18 4.989e-18
9635.744 1.042e-17 5.6e-18
9637.29 1.981e-17 5.773e-18
9638.836 6.45e-18 5.019e-18
9640.382 7.186e-18 5.025e-18
9641.928 1.376e-17 5.15e-18
9643.474 1.057e-17 5.018e-18
9645.021 1.205e-17 5.309e-18
9646.566 6.065e-18 5.555e-18
9648.113 1.81e-17 4.928e-18
9649.658 2.771e-17 5.844e-18
9651.204 -2.093e-19 5.064e-18
9652.75 1.219e-17 5.077e-18
9654.296 2.181e-17 5.564e-18
9655.843 1.486e-17 5.778e-18
9657.388 1.565e-17 5.663e-18
9658.934 8.377e-18 5.315e-18
9660.48 8.74e-18 6.395e-18
9662.026 1.887e-17 5.747e-18
9663.573 2.131e-17 6.456e-18
9665.118 1.302e-17 7.15e-18
9666.664 5.715e-18 7.411e-18
9668.21 7.687e-18 6.853e-18
9669.756 1.946e-17 7.383e-18
9671.302 4.828e-18 5.891e-18
9672.848 1.799e-17 5.697e-18
9674.394 1.469e-17 5.636e-18
9675.94 9.102e-18 5.711e-18
9677.486 1.946e-17 7.315e-18
9679.031 3.017e-17 8.821e-18
9680.578 1.119e-17 9.077e-18
9682.123 -3.141e-18 8.038e-18
9683.669 9.165e-18 6.504e-18
9685.216 2.712e-18 5.506e-18
9686.761 2.534e-17 6.205e-18
9688.307 6.855e-18 5.819e-18
9689.853 9.55e-18 6.246e-18
9691.399 1.892e-17 6.197e-18
9692.945 6.582e-18 5.553e-18
9694.49 3.088e-17 7.439e-18
9696.037 -7.897e-19 9.065e-18
9697.582 3.69e-17 1.003e-17
9699.128 3.164e-17 1.031e-17
9700.673 1.067e-17 8.062e-18
9702.22 6.493e-18 6.139e-18
9703.766 1.337e-17 5.357e-18
9705.311 8.989e-19 5.246e-18
9706.857 7.92e-18 5.801e-18
9708.403 1.259e-17 7.114e-18
9709.949 6.213e-18 7.23e-18
9711.495 1.106e-17 7.364e-18
9713.04 9.238e-18 6.959e-18
9714.587 3.913e-18 7.364e-18
9716.132 -9.192e-18 9.522e-18
9717.678 2.855e-17 1.09e-17
9719.223 1.74e-17 1.094e-17
9720.769 1.411e-17 1.009e-17
9722.316 1.381e-17 7.793e-18
9723.861 1.058e-17 5.911e-18
9725.407 2.271e-17 5.897e-18
9726.952 1.309e-17 5.365e-18
9728.498 1.701e-17 5.897e-18
9730.045 9.543e-18 5.518e-18
9731.59 2.534e-17 6.28e-18
9733.136 3.566e-18 6.929e-18
9734.681 1.691e-17 8.468e-18
9736.227 6.188e-18 8.39e-18
9737.772 1.855e-17 8.277e-18
9739.318 6.401e-18 7.301e-18
9740.865 2.557e-17 6.621e-18
9742.41 1.891e-17 6.522e-18
9743.956 1.364e-17 6.875e-18
9745.501 1.716e-17 6.483e-18
9747.047 1.154e-17 5.87e-18
9748.592 1.2e-17 5.667e-18
9750.138 4.985e-18 5.401e-18
9751.684 1.161e-17 5.407e-18
9753.229 2.25e-17 5.738e-18
9754.775 1.585e-17 6.145e-18
9756.32 1.818e-17 5.892e-18
9757.867 1.671e-17 5.606e-18
9759.413 1.7e-17 5.85e-18
9760.958 1.823e-17 5.554e-18
9762.504 9.569e-18 5.753e-18
9764.049 1.494e-17 5.808e-18
9765.595 2.56e-17 5.535e-18
9767.14 1.198e-17 5.012e-18
9768.686 1.358e-17 5.039e-18
9770.232 1.602e-17 5.239e-18
9771.777 1.437e-17 5.257e-18
9773.323 1.197e-17 5.535e-18
9774.868 1.357e-17 5.577e-18
9776.414 1.819e-17 5.546e-18
9777.96 3.01e-18 5.388e-18
9779.505 1.049e-17 5.693e-18
9781.051 7.206e-18 5.42e-18
9782.596 1.968e-18 5.39e-18
9784.142 1.032e-17 6.634e-18
9785.687 1.071e-17 8.525e-18
9787.233 2.986e-17 1.205e-17
9788.779 3.433e-17 1.363e-17
9790.324 -3.954e-18 1.342e-17
9791.87 1.005e-17 1.323e-17
9793.414 1.703e-17 9.704e-18
9794.96 2.119e-17 7.944e-18
9796.505 6.495e-18 8.733e-18
9798.051 1.453e-17 9.481e-18
9799.597 1.586e-17 9.463e-18
9801.142 1.107e-17 8.191e-18
9802.688 1.216e-17 6.811e-18
9804.233 1.466e-17 6.448e-18
9805.779 9.487e-18 6.218e-18
9807.325 1.315e-17 6.499e-18
9808.869 1.33e-17 7.715e-18
9810.415 2.206e-17 7.456e-18
9811.96 8.814e-18 7.384e-18
9813.506 -6.293e-18 7.105e-18
9815.051 1.899e-17 6.568e-18
9816.597 1.456e-17 6.472e-18
9818.143 7.229e-18 6.319e-18
9819.687 1.465e-17 6.03e-18
9821.233 8.436e-18 5.447e-18
9822.778 8.94e-18 5.99e-18
9824.324 1.951e-17 6.448e-18
9825.87 -4.571e-18 6.006e-18
9827.414 6.381e-18 6.301e-18
9828.96 7.469e-18 6.013e-18
9830.505 1.867e-17 5.699e-18
9832.051 1.442e-17 6.017e-18
9833.596 4.949e-18 5.596e-18
9835.141 1.448e-17 5.44e-18
9836.687 1.586e-17 5.645e-18
9838.232 5.582e-18 5.476e-18
9839.778 1.422e-17 5.437e-18
9841.322 2.442e-17 5.935e-18
9842.868 8.64e-18 6.309e-18
9844.414 1.402e-17 8.099e-18
9845.959 -6.189e-18 9.594e-18
9847.504 -7.278e-18 9.526e-18
9849.049 1.375e-17 9.446e-18
9850.595 1.097e-17 7.536e-18
9852.139 3.744e-18 5.869e-18
9853.685 9.826e-18 5.766e-18
9855.231 3.983e-18 5.104e-18
9856.775 1.52e-17 5.851e-18
9858.321 8.04e-18 5.193e-18
9859.866 1.39e-17 5.721e-18
9861.411 6.898e-18 5.507e-18
9862.956 5.963e-18 5.983e-18
9864.502 2.026e-17 6.124e-18
9866.047 1.996e-17 6.564e-18
9867.592 1.101e-17 1.039e-17
9869.138 -5.107e-18 1.469e-17
9870.682 5.068e-18 1.539e-17
9872.228 -9.56e-18 1.467e-17
9873.773 1.834e-17 1.33e-17
9875.318 6.234e-18 7.914e-18
9876.864 1.647e-17 6.548e-18
9878.408 1.305e-17 5.974e-18
9879.954 2.22e-18 5.957e-18
9881.498 4.27e-18 6.196e-18
9883.044 1.568e-17 6.543e-18
9884.59 2.062e-17 6.576e-18
9886.134 6.042e-18 5.859e-18
9887.68 2.479e-17 6.327e-18
9889.224 3.208e-17 6.683e-18
9890.77 -5.102e-18 8.556e-18
9892.315 -7.82e-18 9.847e-18
9893.86 1.43e-17 1.088e-17
9895.405 2.702e-17 1.156e-17
9896.95 -7.793e-18 8.534e-18
9898.495 1.102e-17 6.778e-18
9900.04 5.984e-18 5.73e-18
9901.585 3.202e-18 5.847e-18
9903.131 1.74e-17 5.881e-18
9904.675 9.762e-18 5.707e-18
9906.221 1.89e-17 6.192e-18
9907.765 1.1e-17 6.268e-18
9909.311 9.313e-18 7.809e-18
9910.856 5.204e-17 1.391e-17
9912.401 3.279e-17 1.518e-17
9913.946 -2.546e-18 1.511e-17
9915.49 4.874e-18 1.462e-17
9917.036 -2.185e-18 1.053e-17
9918.58 1.741e-17 7.673e-18
9920.126 1.018e-17 6.157e-18
9921.671 1.253e-17 6.237e-18
9923.215 1.632e-17 6.187e-18
9924.761 1.675e-17 5.987e-18
9926.305 8.578e-18 6.236e-18
9927.851 2.139e-17 6.188e-18
9929.395 1.559e-17 6.143e-18
9930.94 -2.877e-19 5.977e-18
9932.486 1.529e-17 6.486e-18
9934.03 2.315e-17 6.505e-18
9935.575 7.823e-18 6.307e-18
9937.12 8.624e-18 7.942e-18
9938.665 3.308e-17 1.136e-17
9940.21 2.233e-17 1.218e-17
9941.755 -4.226e-18 1.424e-17
9943.3 4.125e-17 1.695e-17
9944.844 -9.113e-18 1.602e-17
9946.389 6.361e-17 1.618e-17
9947.934 -1.005e-17 1.35e-17
9949.479 5.735e-18 1.069e-17
9951.024 -1.935e-17 8.735e-18
9952.569 6.028e-18 1.1e-17
9954.114 1.646e-17 1.379e-17
9955.658 2.008e-17 1.43e-17
9957.203 6.748e-18 1.532e-17
9958.749 -1.81e-17 1.522e-17
9960.293 1.715e-17 1.444e-17
9961.838 1.573e-17 1.357e-17
9963.382 4.747e-18 1.211e-17
9964.927 8.174e-18 9.017e-18
9966.472 7.168e-18 7.62e-18
9968.017 1.575e-17 8.255e-18
9969.562 3.807e-17 9.574e-18
9971.106 2.308e-18 9.524e-18
9972.651 1.575e-17 9.7e-18
9974.195 1.642e-17 8.882e-18
9975.741 1.043e-17 8.298e-18
9977.286 1.948e-17 7.567e-18
9978.83 4.186e-18 7.467e-18
9980.375 -4.263e-18 6.872e-18
9981.919 1.598e-17 6.923e-18
9983.464 1.438e-17 6.881e-18
9985.008 1.552e-17 6.819e-18
9986.553 4.793e-18 6.845e-18
9988.099 3.035e-17 6.887e-18
9989.643 1.635e-17 7.039e-18
9991.188 2.191e-17 7.224e-18
9992.732 7.959e-18 6.475e-18
9994.277 9.442e-18 6.794e-18
9995.821 1.178e-17 7.805e-18
9997.366 1.789e-17 9.069e-18
9998.911 -9.89e-20 8.899e-18
10000.455 3.047e-17 9.439e-18
10002.0 6.923e-18 8.377e-18
10003.544 4.98e-18 7.198e-18
10005.089 5.525e-18 7.516e-18
10006.634 2.111e-17 8.436e-18
10008.178 2.092e-17 1.228e-17
10009.723 6.367e-17 1.882e-17
10011.267 5.467e-17 2.122e-17
10012.812 1.931e-17 2.084e-17
10014.356 2.125e-17 1.917e-17
10015.901 -1.38e-17 1.333e-17
10017.446 1.678e-19 9.454e-18
10018.99 7.499e-18 8.764e-18
10020.535 -3.196e-18 9.177e-18
10022.079 5.877e-18 1.214e-17
10023.624 -7.883e-18 1.28e-17
10025.169 1.16e-17 1.342e-17
10026.713 2.265e-17 1.266e-17
10028.257 1.348e-17 9.72e-18
10029.801 1.851e-17 8.385e-18
10031.346 2.292e-17 8.165e-18
10032.89 7.233e-18 7.647e-18
10034.435 2.053e-17 7.997e-18
10035.98 1.504e-17 8.412e-18
10037.524 1.251e-17 8.056e-18
10039.068 9.251e-18 8.821e-18
10040.612 -1.62e-18 9.215e-18
10042.157 2.607e-17 1e-17
10043.702 2.088e-17 9.988e-18
10045.246 4.915e-18 9.713e-18
10046.791 1.68e-17 8.658e-18
10048.334 1.266e-17 8.104e-18
10049.879 -1.701e-18 8.051e-18
10051.423 1.423e-17 8.114e-18
10052.968 1.154e-17 7.876e-18
10054.512 2.112e-17 8.543e-18
10056.056 2.733e-17 9.45e-18
10057.601 5.217e-17 1.19e-17
10059.145 2.63e-18 1.205e-17
10060.689 -1.637e-17 1.255e-17
10062.233 1.285e-17 1.149e-17
10063.778 1.198e-17 1.036e-17
10065.323 1.52e-17 1.04e-17
10066.866 2.579e-17 1.05e-17
10068.411 1.462e-17 1.097e-17
10069.955 1.975e-17 1.089e-17
10071.499 1.221e-18 1.024e-17
10073.044 1.946e-17 1.037e-17
10074.588 2.088e-17 9.574e-18
10076.132 1.174e-17 9.562e-18
10077.676 1.971e-17 1.128e-17
10079.221 1.53e-17 1.614e-17
10080.764 -5.362e-18 1.838e-17
10082.309 3.25e-17 1.844e-17
10083.854 -8.017e-18 1.687e-17
10085.397 4.104e-17 1.562e-17
10086.942 2.533e-18 9.974e-18
10088.485 9.448e-18 9.462e-18
10090.03 1.144e-17 9.531e-18
10091.574 1.93e-17 9.515e-18
10093.118 2.068e-18 9.184e-18
10094.663 1.949e-17 1.06e-17
10096.206 1.379e-17 9.199e-18
10097.751 1.585e-17 9.982e-18
10099.294 3.134e-17 1.193e-17
10100.839 9.998e-19 1.329e-17
10102.383 -9.599e-18 1.388e-17
10103.927 1.986e-17 1.441e-17
10105.471 1.849e-17 1.37e-17
10107.015 1.048e-17 1.109e-17
10108.559 1.301e-17 1.015e-17
10110.104 2.543e-17 1.105e-17
10111.647 1.095e-17 9.888e-18
10113.192 1.811e-17 1.046e-17
10114.735 3.326e-17 1.057e-17
10116.28 1.002e-17 1.034e-17
10117.823 1.91e-17 1.061e-17
10119.367 2.68e-17 1.367e-17
10120.912 1.176e-17 1.913e-17
10122.455 1.65e-18 2.092e-17
10124.0 7.308e-18 2.189e-17
10125.543 1.047e-17 2.049e-17
10127.087 -2.971e-17 1.575e-17
10128.631 1.651e-17 1.307e-17
10130.175 6.988e-18 1.18e-17
10131.72 2.162e-17 1.14e-17
10133.263 2.79e-17 1.198e-17
10134.807 1.011e-17 1.129e-17
10136.351 1.73e-17 1.092e-17
10137.895 -1.447e-18 1.092e-17
10139.439 2.095e-17 1.143e-17
10140.982 -1.265e-18 1.091e-17
10142.527 1.189e-17 1.23e-17
10144.07 1.324e-17 1.264e-17
10145.614 2.646e-17 1.332e-17
10147.158 4.924e-18 1.256e-17
10148.702 1.256e-17 1.401e-17
10150.246 3.194e-17 1.629e-17
10151.789 1.123e-17 1.667e-17
10153.334 9.674e-18 1.727e-17
10154.877 5.258e-18 1.68e-17
10156.421 4.652e-18 1.524e-17
10157.965 8.347e-18 1.437e-17
10159.509 1.831e-17 1.477e-17
10161.053 1.452e-17 1.4e-17
10162.596 8.769e-18 1.447e-17
10164.14 1.981e-17 1.487e-17
10165.683 2.856e-17 1.499e-17
10167.227 -1.152e-18 1.61e-17
10168.772 -8.405e-18 2.164e-17
10170.315 -2.59e-17 2.441e-17
10171.859 -9.722e-18 2.569e-17
10173.402 2.745e-17 2.518e-17
10174.946 -3.836e-17 1.965e-17
10176.49 -3.003e-18 1.684e-17
10178.033 8.612e-18 1.588e-17
10179.577 -9.96e-20 1.568e-17
10181.12 2.333e-17 1.589e-17
10182.665 -5.743e-18 1.651e-17
10184.208 1.866e-17 1.522e-17
10185.752 3.13e-17 1.846e-17
10187.296 -2.113e-17 2.052e-17
10188.839 2.892e-17 2.299e-17
10190.383 4.243e-17 2.436e-17
10191.926 -3.38e-17 2.104e-17
10193.47 2.594e-17 1.893e-17
10195.013 -9.9e-18 1.628e-17
10196.557 2.318e-17 1.59e-17
10198.101 6.577e-18 1.656e-17
10199.644 -1.037e-17 1.696e-17
10201.188 2.28e-17 1.873e-17
10202.731 1.393e-17 1.947e-17
10204.275 1.173e-17 2.042e-17
10205.819 6.414e-18 2.085e-17
10207.361 1.113e-17 2.413e-17
10208.905 -2.728e-17 2.639e-17
10210.448 2.677e-17 2.753e-17
10211.992 5.639e-17 2.847e-17
10213.535 -4.558e-17 2.323e-17
10215.079 1.646e-17 2.104e-17
10216.623 -5.924e-18 1.692e-17
10218.166 -5.542e-19 1.669e-17
10219.71 4.213e-17 1.713e-17
10221.252 -9.868e-19 1.81e-17
10222.796 4.274e-17 2.036e-17
10224.34 4.478e-18 2.207e-17
10225.883 3.528e-17 2.409e-17
10227.427 9.994e-17 2.686e-17
10228.97 -6.6e-18 2.413e-17
10230.513 -5.366e-18 2.294e-17
10232.056 2.152e-17 2.239e-17
10233.6 4.423e-18 2.004e-17
10235.144 1.514e-18 1.8e-17
10236.686 -9.299e-18 1.692e-17
