# SIMPLE = T / Written by IDL: Tue Apr 30 16:26:58 2019
# BITPIX = -32 / IEEE single precision floating point
# NAXIS = 2 / Number of axes
# NAXIS1 = 311 /Number of positions along axis 1
# NAXIS2 = 2835 /Number of positions along axis 2
# EXTEND = T / File may contain extensions
# BSCALE = 1.000000E0 / REAL = TAPE*BSCALE + BZERO
# BZERO = 0 /
# ORIGIN = 'NOAO-IRAF FITS Image Kernel July 2003' / FITS file originator
# DATE = '2019-04-27T05:35:00' / Date FITS file was generated
# IRAF-TLM= '2019-04-30T13:12:50' / Time of last modification
# COMMENT FITS (Flexible Image Transport System) format defined in Astronomy and
# COMMENT Astrophysics Supplement Series v44/p363, v44/p371, v73/p359, v73/p365.
# COMMENT Contact the NASA Science Office of Standards and Technology for the
# COMMENT FITS Definition document #100 and other FITS information.
# OBJECT = 'ZTF19aaohuwc' / object title
# OBSERVER= 'Lin Yan ' / observer
# IMGTYPE = 'object ' / observation type
# GAIN = 0.72 / e-/adu
# RON = 2.5 / system noise e-
# DICHROIC= 'D55 ' / Dichroic
# APERTURE= '1.5 ' / aperture (arcsecs)
# TURRET = 'APERTURE' / turret position
# LAMPS = '0000000 ' / lamps: D-FeAr-Hg-Ar-Ne-He-InCand
# BFILTER = 'OPEN ' / filter wheel
# OEXPTIME= 600. / originaly req. exposure time
# EXPTIME = 600. / actual exposure time
# UTSHUT = '2019-04-27T05:24:38.586' / UT shutter open
# NAMPSXY = '1 1 ' / number of amplifiers in y x
# CCDSUM = '1 1 ' / binning in x y
# ASEC1 = '[1:460,1:2835]' / amplifier section 1(LL)
# BSEC1 = '[411:460,1:2835]' / bias section 1(LL)
# CSEC1 = '[1:410,1:2835]' / ccd section 1(LL)
# DSEC1 = '[1:410,1:2835]' / data section 1(LL)
# TSEC1 = '[51:410,1:2835]' / trim section 1(LL)
# ROISEC = '[900:1259,565:3399]' / roi section
# DETID = 'CCD44-82_1' / detector ID
# DETNUM = '1 ' / Detector Number
# DETNAM = 'CCD44-82' / detector name
# FPA = 'DBSP_BLUE' / focal plan array
# DHE = 'SDSU Gen III' / controller info
# CCDTEMP = '161.78 ' / detector mount temp
# SOFTVER = '3.4 ' / software version
# HDR_REV = '4.3 ' / gfits version
# GCOMMENT= ' ' / comment
# ANGLE = '27 deg 17 min' / Grating Angle
# GRATING = '600/4000' / //lines/mm & Blaze
# AIRMASS = 1.2
# RA = 11.29283
# DEC = 0.5007222
# CASSPA = 0
# BIAS = 'bias_DBSP_BLUE_11.fits' / bias frame used
# OVERSCAN= -3 / additional overscan offset applied
# FLAT = 'flat_DBSP_BLUE_11_1.5_D55_600_4000.fits' / flatfield frame used
# FLATSECT= '[150:350]' / flatfield collapse section
# SIGCLIP = 15.0000 / LA Cosmic sigclip
# SIGFRAC = 0.0500000 / LA Cosmic sigfrac
# OBJLIM = 0.500000 / LA Cosmic objlim
# NITER = 4 / LA Cosmic niter
# NCOSMICS= 155 / number of cosmics found
# DATE-OBS= '2019-04-27' / UT date of observation (from UTSHUT keyword)
# MJD = 58600.2254465 / MJD corresponding to UTSHUT
# DISPLINE = 1480 / column/row along dispersion axis to find trace
# NDISP = 50 / number of columns/rows to sum to find and trace profile
# OPTIMALPROFILE = local / number of columns/rows to sum to find and trace profile
# WIDTH_LOCALPROFILE = 200 / width in pixels of local extraction profile
# X_GLOBPROF = [500,2000] / dispersion pixel range for global profile
# OBJ_APER = -7,7 / object extraction aperture
# SKY_APER = -35,-12,12,35 / sky extraction aperture
# ARCFILE1 = arc_DBSP_BLUE_11_0.5_D55_600_4000_FeAr.fits / arc file used
# END
# header info from red frame:
# SIMPLE = T / Written by IDL: Tue Apr 30 17:22:27 2019
# BITPIX = -32 / IEEE single precision floating point
# NAXIS = 2 / Number of axes
# NAXIS1 = 4107 /Number of positions along axis 1
# NAXIS2 = 401 /Number of positions along axis 2
# EXTEND = T / File may contain extensions
# BSCALE = 1.000000E0 / REAL = TAPE*BSCALE + BZERO
# BZERO = 0 /
# ORIGIN = 'NOAO-IRAF FITS Image Kernel July 2003' / FITS file originator
# DATE = '2019-04-27T05:35:08' / Date FITS file was generated
# IRAF-TLM= '2019-04-30T13:12:50' / Time of last modification
# COMMENT FITS (Flexible Image Transport System) format defined in Astronomy and
# COMMENT Astrophysics Supplement Series v44/p363, v44/p371, v73/p359, v73/p365.
# COMMENT Contact the NASA Science Office of Standards and Technology for the
# COMMENT FITS Definition document #100 and other FITS information.
# OBJECT = 'ZTF19aaohuwc' / object title
# OBSERVER= 'Lin Yan ' / observer
# IMGTYPE = 'object ' / observation type
# GAIN = 2.8 / e-/adu
# RON = 8.5 / system noise e-
# DICHROIC= 'D55 ' / Dichroic
# APERTURE= '1.5 ' / aperture (arcsecs)
# TURRET = 'APERTURE' / turret position
# LAMPS = '0000000 ' / lamps: D-FeAr-Hg-Ar-Ne-He-InCand
# RFILTER = 'OPEN ' / filter wheel
# OEXPTIME= 600. / originaly req. exposure time
# EXPTIME = 600. / actual exposure time
# UTSHUT = '2019-04-27T05:24:45.599' / UT shutter open
# NAMPSXY = '1 1 ' / number of amplifiers in y x
# CCDSUM = '1 1 ' / binning in x y
# ASEC1 = '[1:4141,1:440]' / amplifier section 1(LL)
# BSEC1 = '[4122:4141,1:440]' / bias section 1(LL)
# CSEC1 = '[1:4121,1:440]' / ccd section 1(LL)
# DSEC1 = '[1:4121,1:440]' / data section 1(LL)
# TSEC1 = '[8:4121,1:440]' / trim section 1(LL)
# ROISEC = '[1:4114,785:1224]' / roi section
# DETID = 'LBNL_4Kx2K_1' / detector ID
# DETNUM = '1 ' / Detector Number
# DETNAM = 'LBNL_4Kx2K' / detector name
# FPA = 'DBSP_RED2' / focal plan array
# DHE = 'SDSU Gen III' / controller info
# CCDTEMP = '130.000 ' / detector mount temp
# SOFTVER = '3.4 ' / software version
# HDR_REV = '4.3 ' / gfits version
# GCOMMENT= ' ' / comment
# ANGLE = '24 deg 38 min' / Grating Angle
# GRATING = '316/7500' / lines/mm & Blaze
# CRVAL1 = 48.519459
# CRVAL2 = 33.313332
# AIRMASS = 1.2
# RA = 11.29283
# DEC = 0.5007222
# CASSPA = 0
# BIAS = 'bias_DBSP_RED2_11.fits' / bias frame used
# OVERSCAN= -5 / additional overscan offset applied
# FLAT = 'flat_DBSP_RED2_11_1.5_D55_316_7500.fits' / flatfield frame used
# FLATSECT= '[80:280]' / flatfield collapse section
# SIGCLIP = 10.0000 / LA Cosmic sigclip
# SIGFRAC = 0.0500000 / LA Cosmic sigfrac
# OBJLIM = 0.500000 / LA Cosmic objlim
# NITER = 4 / LA Cosmic niter
# NCOSMICS= 4235 / number of cosmics found
# DATE-OBS= '2019-04-27' / UT date of observation (from UTSHUT keyword)
# MJD = 58600.2255277 / MJD corresponding to UTSHUT
# DISPLINE = 1350 / column/row along dispersion axis to find trace
# NDISP = 50 / number of columns/rows to sum to find and trace profile
# OPTIMALPROFILE = local / number of columns/rows to sum to find and trace profile
# WIDTH_LOCALPROFILE = 200 / width in pixels of local extraction profile
# X_GLOBPROF = [500,4000] / dispersion pixel range for global profile
# OBJ_APER = -7,7 / object extraction aperture
# SKY_APER = -51,-20,15,51 / sky extraction aperture
# ARCFILE1 = arc_DBSP_RED2_11_0.5_D55_316_7500_ArNeHe.fits / arc file used
# END
# wave_air           flux            err
# (A)  (erg/s/cm2/A)  (erg/s/cm2/A)
3100.223 -8.619e-17 3.42e-16
3101.265 -5.61e-16 3.839e-16
3102.308 2.739e-16 3.274e-16
3103.35 -1.815e-16 3.196e-16
3104.393 -5.456e-18 3.197e-16
3105.437 -5.482e-16 3.626e-16
3106.48 -5.286e-16 3.471e-16
3107.522 -6.719e-17 3.282e-16
3108.565 2.173e-16 2.896e-16
3109.609 -3.216e-16 3.062e-16
3110.652 -1.085e-16 3.005e-16
3111.695 -1.331e-16 3.284e-16
3112.738 -6.19e-17 2.81e-16
3113.782 4.892e-16 3.093e-16
3114.826 -1.109e-15 3.328e-16
3115.868 6.256e-17 2.597e-16
3116.912 -2.581e-17 2.679e-16
3117.956 -1.658e-16 2.789e-16
3119.0 2.992e-17 2.505e-16
3120.043 -7.778e-16 2.981e-16
3121.087 -1.531e-16 2.578e-16
3122.131 -6.078e-17 2.444e-16
3123.175 -2.773e-16 2.392e-16
3124.219 2.298e-16 2.378e-16
3125.263 3.438e-16 2.299e-16
3126.308 2.427e-16 2.219e-16
3127.351 -1.284e-16 2.411e-16
3128.396 4.776e-17 2.099e-16
3129.44 -5.18e-16 2.512e-16
3130.485 1.121e-16 2.235e-16
3131.529 -6.342e-19 2.098e-16
3132.573 3.34e-16 2.102e-16
3133.618 1.557e-16 1.967e-16
3134.663 -4.023e-17 1.873e-16
3135.707 8.644e-18 1.981e-16
3136.752 -1.437e-16 1.882e-16
3137.797 1.864e-16 1.941e-16
3138.842 6.637e-16 2.022e-16
3139.887 -8.31e-17 1.789e-16
3140.932 -4.068e-16 2.025e-16
3141.977 2.521e-16 2.023e-16
3143.022 -1.914e-16 1.634e-16
3144.067 1.38e-16 1.666e-16
3145.113 -1.215e-17 1.597e-16
3146.158 1.07e-16 1.674e-16
3147.203 1.139e-16 1.669e-16
3148.249 -2.413e-17 1.537e-16
3149.295 2.693e-17 1.504e-16
3150.341 -6.163e-17 1.545e-16
3151.385 4.165e-16 1.691e-16
3152.431 -1.619e-16 1.56e-16
3153.477 5.481e-16 1.759e-16
3154.524 -2.816e-16 1.56e-16
3155.569 -1.185e-16 1.413e-16
3156.615 9.73e-17 1.429e-16
3157.661 1.421e-16 1.491e-16
3158.708 -8.657e-18 1.496e-16
3159.753 -1.258e-16 1.43e-16
3160.8 -5.951e-17 1.416e-16
3161.846 4.273e-16 1.61e-16
3162.892 1.68e-16 1.364e-16
3163.939 1.712e-16 1.404e-16
3164.985 -2.502e-16 1.512e-16
3166.032 -5.392e-17 1.334e-16
3167.078 4.338e-17 1.335e-16
3168.125 -4.043e-17 1.27e-16
3169.172 2.069e-16 1.25e-16
3170.219 1.575e-16 1.286e-16
3171.265 1.649e-16 1.281e-16
3172.312 -9.447e-18 1.182e-16
3173.359 -4.97e-17 1.102e-16
3174.407 2.082e-17 1.076e-16
3175.453 3.168e-16 1.202e-16
3176.501 -8.085e-17 1.04e-16
3177.548 3.168e-17 1e-16
3178.596 1.916e-16 1.064e-16
3179.642 8.019e-18 1.007e-16
3180.69 -1.354e-16 1.122e-16
3181.738 9.71e-17 9.852e-17
3182.784 -9.275e-18 9.985e-17
3183.832 -5.113e-17 1.024e-16
3184.88 8.024e-17 1.007e-16
3185.928 -6.623e-17 1.12e-16
3186.975 -8.258e-18 1.04e-16
3188.023 -7.757e-18 1.034e-16
3189.071 -2.95e-17 1.077e-16
3190.12 1.783e-16 1.116e-16
3191.167 -1.004e-16 1.25e-16
3192.215 2.499e-16 1.234e-16
3193.264 3.311e-17 1.139e-16
3194.312 -5.09e-17 1.214e-16
3195.36 3.26e-16 1.272e-16
3196.408 -1.59e-16 1.302e-16
3197.457 1.559e-16 1.242e-16
3198.505 -1.185e-16 1.26e-16
3199.553 2.038e-16 1.396e-16
3200.602 1.165e-16 1.204e-16
3201.651 -1.66e-16 1.301e-16
3202.699 -8.104e-17 1.164e-16
3203.748 4.739e-17 1.054e-16
3204.797 1.247e-16 1.098e-16
3205.846 3.138e-16 1.206e-16
3206.895 1.628e-16 1.041e-16
3207.944 -6.215e-17 9.009e-17
3208.993 5.627e-17 9.478e-17
3210.043 1.437e-16 1.065e-16
3211.091 1.868e-16 1.034e-16
3212.141 -4.553e-17 9.238e-17
3213.19 1.855e-16 9.937e-17
3214.24 1.359e-16 9.457e-17
3215.288 2.829e-16 1.019e-16
3216.338 5.253e-17 8.839e-17
3217.388 1.897e-16 9.311e-17
3218.437 -5.49e-17 8.376e-17
3219.487 9.203e-17 9.519e-17
3220.537 1.641e-16 9.428e-17
3221.587 6.448e-17 9.276e-17
3222.636 -2.683e-17 8.939e-17
3223.686 2.823e-16 1.078e-16
3224.736 3.041e-16 1.105e-16
3225.787 3.975e-18 9.012e-17
3226.836 1.246e-16 9.048e-17
3227.886 1.896e-16 9.605e-17
3228.937 3.981e-17 7.945e-17
3229.987 1.399e-16 8.974e-17
3231.037 1.811e-18 7.61e-17
3232.087 2.474e-16 8.813e-17
3233.138 1.165e-16 8.637e-17
3234.188 1.364e-16 8.164e-17
3235.239 9.384e-17 8e-17
3236.29 4.303e-17 7.624e-17
3237.341 1.754e-16 8.927e-17
3238.391 1.04e-16 7.585e-17
3239.442 2.096e-16 8.459e-17
3240.493 1.288e-16 7.996e-17
3241.544 6.755e-17 7.677e-17
3242.594 -1.065e-16 8.392e-17
3243.645 3.194e-16 9.233e-17
3244.697 8.223e-17 8.008e-17
3245.748 -5.219e-17 7.757e-17
3246.799 3.138e-16 1.016e-16
3247.85 1.06e-17 8.022e-17
3248.902 2.571e-17 7.884e-17
3249.952 3.809e-17 8.528e-17
3251.004 1.574e-16 8.591e-17
3252.056 -1.312e-18 7.944e-17
3253.108 5.375e-17 7.684e-17
3254.159 1.456e-16 7.642e-17
3255.211 6.548e-20 7.711e-17
3256.263 9.713e-17 7.545e-17
3257.315 8.486e-17 7.828e-17
3258.366 1.811e-16 8.321e-17
3259.418 7.834e-17 7.175e-17
3260.47 1.859e-17 7.18e-17
3261.522 2.184e-16 8.212e-17
3262.574 6.477e-17 6.739e-17
3263.626 1.385e-16 7.32e-17
3264.679 1.58e-17 6.724e-17
3265.73 1.533e-16 7.91e-17
3266.783 -4.273e-17 6.367e-17
3267.835 1.291e-16 7.659e-17
3268.888 8.873e-17 6.401e-17
3269.94 -1.026e-18 5.884e-17
3270.993 1.069e-16 6.769e-17
3272.045 1.428e-16 7.077e-17
3273.098 9.544e-17 6.697e-17
3274.15 1.13e-16 6.484e-17
3275.203 1.97e-16 6.253e-17
3276.256 6.985e-17 5.858e-17
3277.31 4.828e-17 5.863e-17
3278.362 5.174e-17 6.141e-17
3279.415 8.635e-17 5.758e-17
3280.468 1.089e-16 5.882e-17
3281.521 6.016e-17 5.379e-17
3282.574 1.772e-17 5.417e-17
3283.628 -1.214e-17 5.183e-17
3284.681 -1.286e-17 4.965e-17
3285.734 5.999e-17 5.425e-17
3286.788 1.81e-16 6.006e-17
3287.841 1.113e-16 5.725e-17
3288.895 7.355e-17 5.281e-17
3289.948 5.995e-17 4.955e-17
3291.002 1.678e-16 5.734e-17
3292.056 5.576e-17 5.394e-17
3293.11 1.354e-16 5.834e-17
3294.163 -1.533e-17 4.965e-17
3295.217 -3.393e-17 5.652e-17
3296.271 1.311e-16 6.188e-17
3297.324 1.905e-16 5.938e-17
3298.379 1.003e-16 5.808e-17
3299.433 1.987e-16 6.627e-17
3300.487 1.291e-16 6.132e-17
3301.541 1.184e-16 5.865e-17
3302.595 1.032e-16 5.955e-17
3303.65 1.027e-16 5.783e-17
3304.705 -1.851e-17 5.378e-17
3305.758 -2.194e-17 4.954e-17
3306.813 1.983e-17 5.684e-17
3307.868 1.59e-16 6.199e-17
3308.922 7.172e-17 5.453e-17
3309.977 1.189e-17 5.43e-17
3311.032 -4.061e-17 5.073e-17
3312.087 4.274e-17 5.535e-17
3313.141 -2.644e-18 5.526e-17
3314.196 5.876e-17 5.603e-17
3315.251 6.577e-17 5.652e-17
3316.306 1.908e-16 6.303e-17
3317.361 1.019e-16 5.615e-17
3318.416 4.042e-17 5.203e-17
3319.471 1.423e-16 5.748e-17
3320.527 1.071e-16 5.796e-17
3321.581 8.078e-17 5.603e-17
3322.637 7.994e-17 5.259e-17
3323.693 4.153e-17 4.709e-17
3324.747 1.707e-16 5.374e-17
3325.803 1.155e-16 5.011e-17
3326.859 1.259e-16 5.085e-17
3327.915 1.268e-16 4.681e-17
3328.97 5.698e-17 4.222e-17
3330.026 6.834e-17 4.488e-17
3331.082 1.357e-16 4.402e-17
3332.138 8.096e-17 4.318e-17
3333.193 1.157e-16 4.524e-17
3334.249 3.977e-17 4.024e-17
3335.305 7.581e-17 4.231e-17
3336.361 1.562e-16 4.222e-17
3337.417 8.623e-17 3.857e-17
3338.473 8.466e-17 4.18e-17
3339.53 7.855e-17 3.916e-17
3340.585 8.37e-17 4.181e-17
3341.642 1.018e-16 4.099e-17
3342.699 -1.653e-17 3.461e-17
3343.755 3.068e-17 3.731e-17
3344.811 7.101e-17 4.026e-17
3345.868 1.106e-16 4.028e-17
3346.925 7.503e-17 3.902e-17
3347.982 1.513e-16 4.106e-17
3349.038 9.755e-17 3.994e-17
3350.095 1.339e-16 4.143e-17
3351.152 7.008e-17 3.991e-17
3352.208 3.412e-17 3.456e-17
3353.265 2.902e-17 3.719e-17
3354.322 9.679e-17 4.073e-17
3355.379 8.051e-17 4.022e-17
3356.436 1.189e-16 4.211e-17
3357.493 5.701e-17 3.653e-17
3358.551 1.067e-16 4.148e-17
3359.608 3.059e-17 3.702e-17
3360.665 9.308e-18 3.454e-17
3361.722 1.281e-16 4.055e-17
3362.78 3.827e-17 3.659e-17
3363.837 2.077e-17 3.95e-17
3364.894 1.261e-16 4.44e-17
3365.952 1.119e-16 4.526e-17
3367.01 3.587e-17 4.563e-17
3368.067 1.28e-16 4.971e-17
3369.125 2.434e-17 4.626e-17
3370.183 2.608e-16 5.83e-17
3371.241 9.213e-17 4.987e-17
3372.298 3.925e-17 4.616e-17
3373.357 -6.272e-17 4.174e-17
3374.415 7.425e-17 4.824e-17
3375.473 1.256e-16 4.971e-17
3376.53 4.564e-17 4.463e-17
3377.589 5.047e-17 4.472e-17
3378.647 1.752e-16 4.911e-17
3379.705 1.671e-16 4.825e-17
3380.763 1.005e-16 4.413e-17
3381.822 -1.681e-17 3.749e-17
3382.881 1.038e-16 4.485e-17
3383.938 7.876e-17 4.309e-17
3384.997 6.523e-17 4.006e-17
3386.056 4.986e-17 3.776e-17
3387.115 3.962e-17 3.759e-17
3388.173 1.209e-16 4.073e-17
3389.232 2.972e-17 3.425e-17
3390.291 1.588e-17 3.408e-17
3391.349 9.758e-17 3.441e-17
3392.408 -2.532e-18 3.118e-17
3393.467 7.832e-17 3.571e-17
3394.527 8.706e-17 3.552e-17
3395.585 8.542e-17 3.251e-17
3396.644 9.108e-17 3.451e-17
3397.704 7.573e-17 3.522e-17
3398.763 1.329e-16 3.405e-17
3399.822 1.706e-17 2.86e-17
3400.881 2.261e-18 2.77e-17
3401.941 1.143e-16 3.39e-17
3403.0 1.254e-16 3.28e-17
3404.059 2.431e-17 2.869e-17
3405.119 6.321e-17 2.925e-17
3406.179 1.539e-16 3.193e-17
3407.238 4.681e-17 2.904e-17
3408.298 5.834e-17 3.023e-17
3409.358 6.91e-17 2.881e-17
3410.418 8.206e-17 3.03e-17
3411.477 1.047e-16 3.046e-17
3412.537 3.646e-17 2.947e-17
3413.597 7.63e-17 3.075e-17
3414.657 1.328e-16 3.296e-17
3415.717 8.378e-17 3.084e-17
3416.777 4.786e-17 3.055e-17
3417.838 1.071e-16 3.177e-17
3418.897 8.535e-17 3.346e-17
3419.958 5.28e-17 2.991e-17
3421.018 4.406e-17 3.053e-17
3422.079 6.485e-17 3.2e-17
3423.138 1.277e-16 3.56e-17
3424.199 4.606e-17 3.327e-17
3425.26 5.711e-17 3.254e-17
3426.321 4.515e-17 3.058e-17
3427.38 6.882e-17 3.193e-17
3428.441 5.586e-17 2.967e-17
3429.502 6.73e-17 3.279e-17
3430.562 8.245e-17 3.225e-17
3431.623 1.396e-17 3.113e-17
3432.685 1.162e-16 3.623e-17
3433.746 6.924e-17 3.327e-17
3434.806 3.437e-17 3.097e-17
3435.867 6.793e-17 3.422e-17
3436.929 6.986e-17 3.407e-17
3437.99 5.728e-17 3.309e-17
3439.05 6.252e-17 3.569e-17
3440.112 9.199e-17 3.525e-17
3441.173 1.442e-16 3.717e-17
3442.234 2.294e-17 3.223e-17
3443.296 3.409e-17 3.279e-17
3444.357 1.31e-16 3.899e-17
3445.419 1.269e-16 3.93e-17
3446.48 4.168e-17 3.469e-17
3447.542 6.076e-17 3.255e-17
3448.603 7.67e-17 3.099e-17
3449.665 1.083e-16 3.627e-17
3450.726 1.228e-16 3.805e-17
3451.788 1.15e-16 3.95e-17
3452.85 4.462e-17 3.416e-17
3453.912 1.478e-16 3.958e-17
3454.974 1.359e-16 3.636e-17
3456.036 8.62e-17 3.395e-17
3457.098 8.433e-17 3.307e-17
3458.16 1.476e-16 3.412e-17
3459.222 6.8e-17 3.267e-17
3460.284 1.155e-16 3.405e-17
3461.347 1.146e-16 3.213e-17
3462.408 1.008e-16 3.106e-17
3463.471 3.254e-17 2.775e-17
3464.534 5.667e-17 2.834e-17
3465.595 1.075e-16 3.076e-17
3466.658 7.006e-17 2.885e-17
3467.721 7.257e-17 2.796e-17
3468.784 5.374e-17 2.7e-17
3469.845 6.952e-17 2.85e-17
3470.908 6.604e-17 2.719e-17
3471.971 7.977e-17 2.706e-17
3473.034 1.044e-16 2.78e-17
3474.096 9.5e-17 2.669e-17
3475.16 1.081e-16 2.884e-17
3476.223 7.801e-17 2.672e-17
3477.285 1.577e-16 3.119e-17
3478.348 1.085e-16 3.03e-17
3479.412 4.832e-17 2.718e-17
3480.475 -3.661e-17 2.592e-17
3481.537 5.867e-17 3.17e-17
3482.601 3.246e-18 2.887e-17
3483.664 5.102e-17 3.113e-17
3484.728 3.357e-17 2.83e-17
3485.79 5.915e-17 2.992e-17
3486.854 7.856e-17 2.933e-17
3487.918 7.948e-17 2.776e-17
3488.981 1.251e-16 3.17e-17
3490.044 6.356e-17 2.885e-17
3491.108 7.218e-17 2.816e-17
3492.172 9.864e-17 2.924e-17
3493.235 1.436e-16 3.133e-17
3494.299 1.284e-16 3.004e-17
3495.363 9.986e-17 2.913e-17
3496.427 7.164e-17 2.823e-17
3497.49 1.074e-16 3.073e-17
3498.555 7.119e-18 2.473e-17
3499.619 5.045e-17 2.769e-17
3500.682 6.077e-17 2.696e-17
3501.746 5.389e-17 2.603e-17
3502.811 5.184e-17 2.596e-17
3503.875 1.115e-16 2.764e-17
3504.939 1.001e-16 2.795e-17
3506.003 7.916e-17 2.637e-17
3507.068 6.752e-17 2.49e-17
3508.132 1.328e-16 2.908e-17
3509.196 9.477e-17 2.715e-17
3510.261 8.973e-17 2.794e-17
3511.326 9.585e-17 2.77e-17
3512.389 2.456e-17 2.21e-17
3513.454 7.034e-17 2.395e-17
3514.519 1.243e-16 2.684e-17
3515.584 5.616e-17 2.349e-17
3516.648 6.944e-17 2.427e-17
3517.713 7.649e-17 2.386e-17
3518.778 7.798e-17 2.345e-17
3519.843 5.972e-17 2.189e-17
3520.908 1.155e-16 2.405e-17
3521.973 1.158e-16 2.398e-17
3523.038 8.537e-17 2.255e-17
3524.102 8.506e-17 2.189e-17
3525.168 6.955e-17 2.153e-17
3526.233 2.275e-17 1.962e-17
3527.299 1.088e-16 2.255e-17
3528.363 5.013e-17 1.963e-17
3529.429 2.34e-17 1.855e-17
3530.494 8.641e-17 2.064e-17
3531.559 1.039e-16 2.176e-17
3532.625 8.95e-17 2.123e-17
3533.69 6.541e-17 1.968e-17
3534.756 6.241e-17 2.026e-17
3535.821 7.788e-17 2.172e-17
3536.887 5.991e-17 1.984e-17
3537.953 7.849e-17 2.068e-17
3539.019 5.827e-17 2.119e-17
3540.084 1.039e-16 2.426e-17
3541.15 8.72e-17 2.402e-17
3542.216 8.146e-17 2.415e-17
3543.281 1.08e-16 2.686e-17
3544.348 4.549e-17 2.568e-17
3545.414 5.656e-17 2.592e-17
3546.48 8.436e-17 2.69e-17
3547.545 1.247e-16 2.724e-17
3548.612 7.369e-17 2.541e-17
3549.678 9.677e-17 2.626e-17
3550.745 8.66e-17 2.702e-17
3551.81 3.95e-17 2.384e-17
3552.877 6.419e-17 2.481e-17
3553.944 9.945e-17 2.79e-17
3555.009 6.266e-17 2.712e-17
3556.076 1.048e-16 2.841e-17
3557.143 9.786e-17 2.749e-17
3558.21 8.416e-17 2.676e-17
3559.275 1.097e-16 2.785e-17
3560.342 9.724e-17 2.656e-17
3561.409 8.233e-17 2.521e-17
3562.476 5.136e-17 2.37e-17
3563.542 1.72e-16 3e-17
3564.609 9.804e-17 2.555e-17
3565.676 8.839e-17 2.419e-17
3566.743 1.031e-16 2.472e-17
3567.81 9.382e-17 2.473e-17
3568.877 6.003e-17 2.212e-17
3569.944 8.238e-17 2.365e-17
3571.011 1.026e-16 2.471e-17
3572.078 7.136e-17 2.327e-17
3573.146 2.177e-17 2.239e-17
3574.213 8.092e-17 2.377e-17
3575.28 1.02e-16 2.36e-17
3576.347 1.056e-16 2.449e-17
3577.415 6.055e-17 2.124e-17
3578.482 5.278e-17 2.042e-17
3579.549 7.093e-17 2.102e-17
3580.617 5.045e-17 1.993e-17
3581.685 8.442e-17 2.118e-17
3582.752 7.655e-17 2.037e-17
3583.82 8.068e-17 2.1e-17
3584.888 1.198e-16 2.207e-17
3585.954 8.747e-17 2.013e-17
3587.023 1.136e-16 2.098e-17
3588.091 5.359e-17 1.867e-17
3589.159 6.227e-17 1.982e-17
3590.226 7.142e-17 1.915e-17
3591.294 1.027e-16 2.066e-17
3592.362 5.591e-17 1.838e-17
3593.431 1.016e-16 2.141e-17
3594.498 1.025e-16 2.09e-17
3595.566 9.378e-17 2.056e-17
3596.635 1.029e-16 2.015e-17
3597.702 3.254e-17 1.585e-17
3598.771 4.615e-17 1.721e-17
3599.839 7.918e-17 1.864e-17
3600.908 7.939e-17 1.891e-17
3601.976 6.196e-17 1.724e-17
3603.044 9.685e-17 1.917e-17
3604.113 1.043e-16 1.896e-17
3605.182 1.156e-16 2.009e-17
3606.25 1.118e-16 1.986e-17
3607.318 7.71e-17 1.813e-17
3608.387 7.251e-17 1.763e-17
3609.455 1.244e-16 1.951e-17
3610.524 9.314e-17 1.87e-17
3611.593 7.109e-17 1.765e-17
3612.662 1.98e-17 1.648e-17
3613.73 8.837e-17 1.983e-17
3614.8 8.568e-17 1.955e-17
3615.869 9.487e-17 2.039e-17
3616.937 6.426e-17 1.986e-17
3618.006 7.938e-17 2.007e-17
3619.076 1.195e-16 2.155e-17
3620.145 9.391e-17 2.148e-17
3621.214 8.559e-17 1.966e-17
3622.283 9.769e-17 2.064e-17
3623.353 6.471e-17 2.017e-17
3624.422 1.218e-16 2.208e-17
3625.491 1.043e-16 2.223e-17
3626.56 6.866e-17 2.108e-17
3627.63 5.154e-17 1.955e-17
3628.699 1.073e-16 2.278e-17
3629.768 1.333e-16 2.313e-17
3630.838 8.057e-17 2.224e-17
3631.908 1.054e-16 2.294e-17
3632.977 8.07e-17 2.148e-17
3634.047 4.288e-17 2.215e-17
3635.117 5.145e-17 2.132e-17
3636.187 6.413e-17 2.227e-17
3637.256 7.217e-17 2.302e-17
3638.326 5.269e-17 2.142e-17
3639.396 1.035e-16 2.388e-17
3640.465 9.561e-17 2.303e-17
3641.536 7.558e-17 2.205e-17
3642.606 2.847e-17 2.119e-17
3643.676 5.536e-17 2.011e-17
3644.746 9.248e-17 2.234e-17
3645.816 8.088e-17 2.171e-17
3646.886 9.601e-17 2.32e-17
3647.956 6.158e-17 2.467e-17
3649.026 5.197e-17 2.437e-17
3650.097 9.551e-17 2.839e-17
3651.168 8.758e-17 2.762e-17
3652.237 5.134e-17 2.528e-17
3653.308 5.301e-17 2.414e-17
3654.379 9.195e-17 2.476e-17
3655.449 4.597e-17 2.263e-17
3656.519 1.109e-16 2.437e-17
3657.59 8.456e-17 2.227e-17
3658.661 7.009e-17 2.062e-17
3659.731 1.282e-16 2.286e-17
3660.802 6.453e-18 1.836e-17
3661.873 9.688e-17 2.292e-17
3662.944 8.676e-17 2.195e-17
3664.014 8.388e-17 2.231e-17
3665.085 5.278e-17 1.935e-17
3666.156 4.812e-17 1.87e-17
3667.228 1.04e-16 2.012e-17
3668.298 4.242e-17 1.778e-17
3669.369 8.311e-17 1.759e-17
3670.441 9.533e-17 1.87e-17
3671.511 7.632e-17 1.771e-17
3672.582 4.789e-17 1.727e-17
3673.654 7.726e-17 1.792e-17
3674.725 1.216e-16 1.881e-17
3675.796 7.08e-17 1.7e-17
3676.868 1.295e-16 1.896e-17
3677.939 7.948e-17 1.625e-17
3679.01 8.2e-17 1.682e-17
3680.082 7.721e-17 1.66e-17
3681.153 1.149e-16 1.749e-17
3682.225 1.154e-16 1.758e-17
3683.296 8.131e-17 1.6e-17
3684.368 8.543e-17 1.604e-17
3685.44 8.845e-17 1.732e-17
3686.512 6.85e-17 1.509e-17
3687.583 9.821e-17 1.708e-17
3688.655 6.614e-17 1.519e-17
3689.727 1.136e-16 1.772e-17
3690.798 8.695e-17 1.695e-17
3691.87 9.505e-17 1.654e-17
3692.942 1.029e-16 1.729e-17
3694.015 8.648e-17 1.661e-17
3695.086 1.112e-16 1.755e-17
3696.158 1.002e-16 1.691e-17
3697.231 9.348e-17 1.764e-17
3698.302 9.704e-17 1.777e-17
3699.374 7.88e-17 1.773e-17
3700.447 5.459e-17 1.756e-17
3701.519 1.149e-16 1.897e-17
3702.591 1.311e-16 1.972e-17
3703.664 7.957e-17 1.847e-17
3704.736 1.188e-16 1.898e-17
3705.809 1.08e-16 1.9e-17
3706.881 8.125e-17 1.795e-17
3707.953 8.048e-17 1.786e-17
3709.026 9.425e-17 1.81e-17
3710.098 9.63e-17 1.789e-17
3711.171 9.267e-17 1.823e-17
3712.244 1.103e-16 1.885e-17
3713.317 9.398e-17 1.842e-17
3714.389 8.984e-17 1.87e-17
3715.462 8.825e-17 1.899e-17
3716.535 7.249e-17 1.759e-17
3717.607 6.442e-17 1.758e-17
3718.68 9.941e-17 1.848e-17
3719.753 9.435e-17 1.842e-17
3720.826 8.463e-17 1.809e-17
3721.899 1.244e-16 1.917e-17
3722.972 9.855e-17 1.807e-17
3724.045 1.085e-16 1.902e-17
3725.119 1.084e-16 1.935e-17
3726.191 1.279e-16 1.967e-17
3727.265 1.013e-16 1.909e-17
3728.338 2.737e-17 1.703e-17
3729.411 5.083e-17 1.861e-17
3730.484 6.964e-17 1.818e-17
3731.558 9.673e-17 1.985e-17
3732.631 5.156e-17 1.783e-17
3733.704 9.361e-17 1.97e-17
3734.778 4.926e-17 1.759e-17
3735.852 1.229e-16 1.938e-17
3736.924 6.158e-17 1.763e-17
3737.998 8.85e-17 1.987e-17
3739.072 9.336e-17 2.007e-17
3740.146 6.572e-17 1.858e-17
3741.219 8.453e-17 1.907e-17
3742.293 6.428e-17 1.902e-17
3743.367 7.013e-17 1.843e-17
3744.441 8.837e-17 1.865e-17
3745.514 8.384e-17 1.838e-17
3746.588 6.4e-17 1.747e-17
3747.662 9.466e-17 1.868e-17
3748.736 8.468e-17 1.745e-17
3749.81 7.874e-17 1.698e-17
3750.884 1.107e-16 1.828e-17
3751.959 7.86e-17 1.689e-17
3753.032 9.281e-17 1.716e-17
3754.106 9.337e-17 1.822e-17
3755.181 1.01e-16 1.735e-17
3756.254 7.763e-17 1.664e-17
3757.329 8.041e-17 1.679e-17
3758.403 6.208e-17 1.546e-17
3759.478 9.473e-17 1.687e-17
3760.551 1.003e-16 1.67e-17
3761.626 1.067e-16 1.626e-17
3762.701 5.444e-17 1.497e-17
3763.775 8.989e-17 1.644e-17
3764.849 8.079e-17 1.492e-17
3765.924 9.907e-17 1.574e-17
3766.999 9.971e-17 1.612e-17
3768.073 1.082e-16 1.601e-17
3769.148 8.964e-17 1.518e-17
3770.223 6.642e-17 1.459e-17
3771.298 5.56e-17 1.461e-17
3772.372 9.243e-17 1.59e-17
3773.447 1.246e-16 1.718e-17
3774.522 6.192e-17 1.473e-17
3775.596 5.294e-17 1.416e-17
3776.671 8.714e-17 1.564e-17
3777.746 7.687e-17 1.541e-17
3778.822 7.021e-17 1.53e-17
3779.896 9.123e-17 1.531e-17
3780.971 5.968e-17 1.438e-17
3782.047 7.37e-17 1.469e-17
3783.121 6.832e-17 1.454e-17
3784.197 7.065e-17 1.455e-17
3785.272 8.735e-17 1.516e-17
3786.347 9.317e-17 1.484e-17
3787.422 8.373e-17 1.44e-17
3788.498 9.022e-17 1.49e-17
3789.573 7.879e-17 1.45e-17
3790.649 1.039e-16 1.504e-17
3791.724 1.264e-16 1.61e-17
3792.799 8.319e-17 1.512e-17
3793.875 9.472e-17 1.532e-17
3794.95 8.662e-17 1.463e-17
3796.026 7.483e-17 1.481e-17
3797.101 6.746e-17 1.38e-17
3798.177 9.634e-17 1.463e-17
3799.252 7.532e-17 1.391e-17
3800.328 8.183e-17 1.47e-17
3801.404 8.578e-17 1.444e-17
3802.479 9.722e-17 1.502e-17
3803.555 1.113e-16 1.526e-17
3804.631 5.727e-17 1.339e-17
3805.708 7.616e-17 1.397e-17
3806.783 9.575e-17 1.529e-17
3807.859 5.87e-17 1.32e-17
3808.935 1.206e-16 1.593e-17
3810.011 5.923e-17 1.334e-17
3811.087 8.975e-17 1.492e-17
3812.163 7.881e-17 1.456e-17
3813.24 8.667e-17 1.48e-17
3814.315 7.798e-17 1.454e-17
3815.392 9.08e-17 1.526e-17
3816.468 1.058e-16 1.532e-17
3817.545 9.116e-17 1.523e-17
3818.62 8.559e-17 1.469e-17
3819.697 7.995e-17 1.445e-17
3820.773 8.249e-17 1.421e-17
3821.849 6.562e-17 1.403e-17
3822.926 7.716e-17 1.437e-17
3824.002 6.457e-17 1.356e-17
3825.079 6.18e-17 1.341e-17
3826.155 7.309e-17 1.404e-17
3827.232 7.407e-17 1.423e-17
3828.309 8.18e-17 1.479e-17
3829.385 5.953e-17 1.47e-17
3830.462 7.573e-17 1.556e-17
3831.539 1.071e-16 1.604e-17
3832.616 1.115e-16 1.669e-17
3833.692 9.502e-17 1.614e-17
3834.769 8.172e-17 1.595e-17
3835.846 7.92e-17 1.531e-17
3836.922 1.08e-16 1.563e-17
3837.999 7.678e-17 1.501e-17
3839.076 7.45e-17 1.456e-17
3840.154 7.922e-17 1.499e-17
3841.23 9.633e-17 1.526e-17
3842.307 9.204e-17 1.598e-17
3843.384 6.253e-17 1.398e-17
3844.462 1.019e-16 1.575e-17
3845.538 5.785e-17 1.474e-17
3846.616 8.572e-17 1.46e-17
3847.693 7.351e-17 1.405e-17
3848.77 3.092e-17 1.279e-17
3849.847 9.669e-17 1.468e-17
3850.925 8.505e-17 1.441e-17
3852.002 9.272e-17 1.458e-17
3853.079 1.065e-16 1.456e-17
3854.157 6.787e-17 1.366e-17
3855.235 9.805e-17 1.418e-17
3856.311 8.165e-17 1.399e-17
3857.389 8.216e-17 1.39e-17
3858.467 9.218e-17 1.437e-17
3859.545 8.639e-17 1.336e-17
3860.622 7.293e-17 1.35e-17
3861.7 6.166e-17 1.379e-17
3862.777 6.918e-17 1.348e-17
3863.854 6.862e-17 1.326e-17
3864.932 7.487e-17 1.414e-17
3866.01 6.448e-17 1.342e-17
3867.089 8.194e-17 1.346e-17
3868.166 8.339e-17 1.396e-17
3869.244 9.624e-17 1.4e-17
3870.322 5.26e-17 1.23e-17
3871.4 6.45e-17 1.272e-17
3872.477 1.045e-16 1.433e-17
3873.556 7.303e-17 1.294e-17
3874.634 1.017e-16 1.43e-17
3875.711 7.724e-17 1.349e-17
3876.79 7.599e-17 1.328e-17
3877.868 7.986e-17 1.356e-17
3878.947 5.558e-17 1.23e-17
3880.024 8.441e-17 1.267e-17
3881.103 1.001e-16 1.318e-17
3882.181 8.237e-17 1.28e-17
3883.259 8.259e-17 1.269e-17
3884.337 1.041e-16 1.255e-17
3885.416 9.392e-17 1.247e-17
3886.494 7.609e-17 1.208e-17
3887.572 8.364e-17 1.235e-17
3888.651 6.297e-17 1.168e-17
3889.73 8.663e-17 1.278e-17
3890.807 7.977e-17 1.238e-17
3891.886 7.293e-17 1.246e-17
3892.965 8.286e-17 1.279e-17
3894.044 8.441e-17 1.214e-17
3895.122 7.462e-17 1.266e-17
3896.201 8.629e-17 1.275e-17
3897.28 6.256e-17 1.211e-17
3898.358 6.396e-17 1.179e-17
3899.437 8.187e-17 1.277e-17
3900.516 6.632e-17 1.231e-17
3901.595 7.35e-17 1.275e-17
3902.673 8.66e-17 1.33e-17
3903.752 1.007e-16 1.331e-17
3904.831 6.759e-17 1.3e-17
3905.911 7.358e-17 1.363e-17
3906.989 6.218e-17 1.351e-17
3908.068 1.039e-16 1.455e-17
3909.148 1.127e-16 1.463e-17
3910.226 6.36e-17 1.404e-17
3911.305 9.991e-17 1.438e-17
3912.385 8.602e-17 1.438e-17
3913.464 9.134e-17 1.402e-17
3914.543 1.013e-16 1.408e-17
3915.622 7.937e-17 1.31e-17
3916.702 8.538e-17 1.311e-17
3917.78 5.875e-17 1.218e-17
3918.86 7.649e-17 1.268e-17
3919.939 5.784e-17 1.189e-17
3921.019 7.292e-17 1.235e-17
3922.098 5.645e-17 1.174e-17
3923.177 8.809e-17 1.231e-17
3924.257 7.251e-17 1.189e-17
3925.336 6.641e-17 1.167e-17
3926.416 9.555e-17 1.273e-17
3927.496 9.982e-17 1.245e-17
3928.575 7.933e-17 1.179e-17
3929.654 5.388e-17 1.114e-17
3930.734 6.48e-17 1.166e-17
3931.814 8.7e-17 1.225e-17
3932.893 7.076e-17 1.144e-17
3933.973 6.02e-17 1.139e-17
3935.053 8.739e-17 1.233e-17
3936.133 7.477e-17 1.19e-17
3937.212 9.016e-17 1.246e-17
3938.293 6.738e-17 1.153e-17
3939.373 9.702e-17 1.334e-17
3940.453 1.043e-16 1.347e-17
3941.532 6.683e-17 1.238e-17
3942.612 7.039e-17 1.27e-17
3943.693 1.041e-16 1.351e-17
3944.772 7.832e-17 1.337e-17
3945.852 8.28e-17 1.339e-17
3946.933 8.613e-17 1.306e-17
3948.013 1.015e-16 1.338e-17
3949.093 6.228e-17 1.283e-17
3950.173 5.016e-17 1.156e-17
3951.254 6.493e-17 1.27e-17
3952.333 9.524e-17 1.285e-17
3953.414 6.439e-17 1.22e-17
3954.494 9.937e-17 1.324e-17
3955.575 7.667e-17 1.267e-17
3956.654 7.893e-17 1.218e-17
3957.735 9.657e-17 1.286e-17
3958.816 6.583e-17 1.188e-17
3959.895 7.471e-17 1.245e-17
3960.976 9.573e-17 1.329e-17
3962.057 9.493e-17 1.318e-17
3963.138 8.983e-17 1.231e-17
3964.218 8.342e-17 1.163e-17
3965.298 8.044e-17 1.166e-17
3966.379 9.291e-17 1.186e-17
3967.459 9.182e-17 1.203e-17
3968.54 6.501e-17 1.093e-17
3969.621 5.996e-17 1.102e-17
3970.702 8.08e-17 1.189e-17
3971.782 7.863e-17 1.136e-17
3972.863 5.967e-17 1.085e-17
3973.944 8.621e-17 1.198e-17
3975.025 9.425e-17 1.229e-17
3976.106 7.986e-17 1.19e-17
3977.187 7.286e-17 1.222e-17
3978.268 9.516e-17 1.244e-17
3979.348 7.452e-17 1.215e-17
3980.43 5.356e-17 1.151e-17
3981.511 9.135e-17 1.257e-17
3982.592 7.348e-17 1.19e-17
3983.672 8.309e-17 1.231e-17
3984.754 4.734e-17 1.143e-17
3985.835 6.748e-17 1.178e-17
3986.916 5.922e-17 1.161e-17
3987.997 7.167e-17 1.229e-17
3989.079 5.313e-17 1.207e-17
3990.16 7.752e-17 1.271e-17
3991.241 1.063e-16 1.262e-17
3992.322 7.784e-17 1.241e-17
3993.404 7.444e-17 1.272e-17
3994.484 9.45e-17 1.318e-17
3995.566 9.969e-17 1.354e-17
3996.648 8.219e-17 1.289e-17
3997.729 9.33e-17 1.313e-17
3998.81 9.502e-17 1.287e-17
3999.892 1.057e-16 1.341e-17
4000.974 9.231e-17 1.333e-17
4002.054 7.826e-17 1.299e-17
4003.136 7.749e-17 1.303e-17
4004.218 7.167e-17 1.211e-17
4005.3 5.576e-17 1.175e-17
4006.381 7.362e-17 1.242e-17
4007.463 6.605e-17 1.212e-17
4008.545 1.032e-16 1.399e-17
4009.626 7.073e-17 1.26e-17
4010.708 9.749e-17 1.372e-17
4011.79 7.984e-17 1.325e-17
4012.872 7.958e-17 1.305e-17
4013.953 9.376e-17 1.381e-17
4015.035 7.954e-17 1.311e-17
4016.117 8.172e-17 1.293e-17
4017.199 8.496e-17 1.273e-17
4018.281 9.271e-17 1.332e-17
4019.363 9.009e-17 1.395e-17
4020.445 7.905e-17 1.326e-17
4021.527 6.432e-17 1.319e-17
4022.609 8.878e-17 1.37e-17
4023.691 7.655e-17 1.371e-17
4024.774 4.39e-17 1.224e-17
4025.855 7.612e-17 1.29e-17
4026.937 8.996e-17 1.303e-17
4028.02 1.075e-16 1.313e-17
4029.101 7.834e-17 1.238e-17
4030.184 7.951e-17 1.242e-17
4031.266 7.623e-17 1.253e-17
4032.349 8.446e-17 1.263e-17
4033.43 7.96e-17 1.287e-17
4034.513 6.415e-17 1.232e-17
4035.596 9.256e-17 1.264e-17
4036.677 7.203e-17 1.245e-17
4037.76 6.939e-17 1.219e-17
4038.843 7.494e-17 1.242e-17
4039.925 8.501e-17 1.259e-17
4041.007 7.334e-17 1.284e-17
4042.09 8.622e-17 1.305e-17
4043.173 1.095e-16 1.428e-17
4044.255 8.137e-17 1.509e-17
4045.337 8.757e-17 1.886e-17
4046.42 1.338e-16 2.189e-17
4047.503 9.655e-17 2.175e-17
4048.585 7.398e-17 1.946e-17
4049.668 6.736e-17 1.623e-17
4050.751 6.449e-17 1.348e-17
4051.833 7.559e-17 1.285e-17
4052.916 8.597e-17 1.31e-17
4053.999 8.284e-17 1.302e-17
4055.082 8.565e-17 1.332e-17
4056.164 9.024e-17 1.273e-17
4057.247 7.35e-17 1.208e-17
4058.331 9.168e-17 1.278e-17
4059.413 8.196e-17 1.222e-17
4060.496 5.475e-17 1.172e-17
4061.579 7.312e-17 1.209e-17
4062.662 5.837e-17 1.182e-17
4063.745 9.877e-17 1.312e-17
4064.828 8.444e-17 1.259e-17
4065.911 1.082e-16 1.326e-17
4066.994 9.42e-17 1.293e-17
4068.077 5.312e-17 1.191e-17
4069.16 8.589e-17 1.259e-17
4070.244 7.492e-17 1.185e-17
4071.326 8.026e-17 1.216e-17
4072.41 7.474e-17 1.198e-17
4073.493 7.634e-17 1.197e-17
4074.576 7.199e-17 1.193e-17
4075.659 7.532e-17 1.238e-17
4076.743 8.061e-17 1.313e-17
4077.826 8.989e-17 1.366e-17
4078.909 7.544e-17 1.373e-17
4079.993 6.782e-17 1.32e-17
4081.076 6.846e-17 1.268e-17
4082.159 8.523e-17 1.256e-17
4083.243 9.381e-17 1.302e-17
4084.326 8.415e-17 1.271e-17
4085.41 6.905e-17 1.204e-17
4086.493 8.023e-17 1.22e-17
4087.577 8.373e-17 1.235e-17
4088.661 6.452e-17 1.182e-17
4089.745 6.844e-17 1.138e-17
4090.827 8.611e-17 1.196e-17
4091.911 8.059e-17 1.168e-17
4092.995 7.635e-17 1.149e-17
4094.078 7.332e-17 1.122e-17
4095.162 9.216e-17 1.207e-17
4096.246 8.539e-17 1.168e-17
4097.33 1.034e-16 1.227e-17
4098.413 7.86e-17 1.123e-17
4099.497 9.145e-17 1.223e-17
4100.581 9.278e-17 1.198e-17
4101.664 7.931e-17 1.119e-17
4102.748 7.112e-17 1.1e-17
4103.833 7.553e-17 1.139e-17
4104.917 7.785e-17 1.162e-17
4106.0 9.57e-17 1.197e-17
4107.084 7.612e-17 1.154e-17
4108.168 7.708e-17 1.162e-17
4109.252 7.566e-17 1.137e-17
4110.336 9.14e-17 1.211e-17
4111.42 5.724e-17 1.106e-17
4112.505 8.732e-17 1.178e-17
4113.588 8.097e-17 1.143e-17
4114.672 7.397e-17 1.197e-17
4115.757 7.454e-17 1.153e-17
4116.84 6.517e-17 1.127e-17
4117.925 9.031e-17 1.234e-17
4119.009 8.148e-17 1.165e-17
4120.094 8.959e-17 1.199e-17
4121.177 7.178e-17 1.106e-17
4122.262 8.811e-17 1.171e-17
4123.346 9.359e-17 1.216e-17
4124.43 7.698e-17 1.169e-17
4125.514 9.298e-17 1.227e-17
4126.599 8.863e-17 1.214e-17
4127.684 7.363e-17 1.182e-17
4128.767 8.95e-17 1.211e-17
4129.852 8.921e-17 1.198e-17
4130.937 8.583e-17 1.198e-17
4132.02 5.086e-17 1.076e-17
4133.105 8.607e-17 1.196e-17
4134.19 5.836e-17 1.118e-17
4135.275 8.222e-17 1.182e-17
4136.359 5.008e-17 1.102e-17
4137.443 8.343e-17 1.188e-17
4138.528 7.977e-17 1.21e-17
4139.612 6.983e-17 1.154e-17
4140.697 8.704e-17 1.209e-17
4141.782 7.332e-17 1.127e-17
4142.867 5.926e-17 1.104e-17
4143.951 7.581e-17 1.149e-17
4145.036 5.206e-17 1.048e-17
4146.121 7.849e-17 1.088e-17
4147.205 6.596e-17 1.068e-17
4148.29 7.177e-17 1.093e-17
4149.375 6.69e-17 1.112e-17
4150.46 6.785e-17 1.094e-17
4151.544 7.425e-17 1.152e-17
4152.629 6.21e-17 1.141e-17
4153.714 8.464e-17 1.17e-17
4154.799 8.982e-17 1.199e-17
4155.884 8.425e-17 1.192e-17
4156.969 9.813e-17 1.231e-17
4158.054 1.059e-16 1.23e-17
4159.138 6.301e-17 1.113e-17
4160.224 6.789e-17 1.145e-17
4161.309 6.383e-17 1.15e-17
4162.393 7.586e-17 1.18e-17
4163.479 9.259e-17 1.257e-17
4164.564 6.862e-17 1.204e-17
4165.649 4.303e-17 1.159e-17
4166.734 8.747e-17 1.279e-17
4167.819 8.238e-17 1.171e-17
4168.905 6.473e-17 1.144e-17
4169.989 8.921e-17 1.233e-17
4171.075 7.981e-17 1.183e-17
4172.16 7.671e-17 1.194e-17
4173.246 5.092e-17 1.099e-17
4174.33 6.85e-17 1.149e-17
4175.416 6.627e-17 1.126e-17
4176.501 7.675e-17 1.162e-17
4177.586 8.753e-17 1.186e-17
4178.671 8.999e-17 1.202e-17
4179.757 6.125e-17 1.139e-17
4180.843 7.291e-17 1.134e-17
4181.927 9.066e-17 1.181e-17
4183.013 6.417e-17 1.098e-17
4184.099 1.023e-16 1.208e-17
4185.184 7.736e-17 1.135e-17
4186.269 7.295e-17 1.081e-17
4187.355 7.259e-17 1.105e-17
4188.441 8.491e-17 1.123e-17
4189.526 7.747e-17 1.162e-17
4190.612 9.943e-17 1.19e-17
4191.697 6.748e-17 1.119e-17
4192.782 9.225e-17 1.188e-17
4193.868 4.983e-17 1.061e-17
4194.954 9.26e-17 1.212e-17
4196.04 7.443e-17 1.117e-17
4197.125 8.04e-17 1.167e-17
4198.211 8.452e-17 1.145e-17
4199.297 4.885e-17 1.063e-17
4200.382 7.612e-17 1.121e-17
4201.468 9.207e-17 1.176e-17
4202.554 7.136e-17 1.141e-17
4203.64 9.402e-17 1.182e-17
4204.725 7.853e-17 1.154e-17
4205.811 8.357e-17 1.158e-17
4206.897 8.138e-17 1.141e-17
4207.983 8.028e-17 1.191e-17
4209.069 1.181e-16 1.302e-17
4210.155 9.132e-17 1.224e-17
4211.241 7.299e-17 1.174e-17
4212.326 8.859e-17 1.218e-17
4213.412 7.733e-17 1.188e-17
4214.499 8.425e-17 1.183e-17
4215.585 6.547e-17 1.152e-17
4216.67 6.192e-17 1.113e-17
4217.756 9.982e-17 1.245e-17
4218.843 8.604e-17 1.198e-17
4219.928 6.792e-17 1.167e-17
4221.014 1.108e-16 1.264e-17
4222.101 9.857e-17 1.256e-17
4223.187 8.828e-17 1.21e-17
4224.273 9.751e-17 1.224e-17
4225.359 7.568e-17 1.137e-17
4226.445 6.637e-17 1.136e-17
4227.531 7.676e-17 1.137e-17
4228.617 7.705e-17 1.156e-17
4229.704 7.704e-17 1.161e-17
4230.79 9.141e-17 1.21e-17
4231.876 7.593e-17 1.172e-17
4232.962 7.114e-17 1.182e-17
4234.049 6.166e-17 1.137e-17
4235.135 8.963e-17 1.189e-17
4236.221 7.84e-17 1.208e-17
4237.308 6.089e-17 1.152e-17
4238.394 8.545e-17 1.226e-17
4239.48 8.682e-17 1.249e-17
4240.567 7.057e-17 1.226e-17
4241.653 7.912e-17 1.192e-17
4242.739 9.509e-17 1.25e-17
4243.826 6.331e-17 1.157e-17
4244.913 8.535e-17 1.256e-17
4245.999 6.234e-17 1.241e-17
4247.085 8.678e-17 1.299e-17
4248.172 9.138e-17 1.362e-17
4249.259 6.095e-17 1.196e-17
4250.344 6.365e-17 1.208e-17
4251.431 8.533e-17 1.228e-17
4252.518 7.333e-17 1.204e-17
4253.605 6.19e-17 1.161e-17
4254.691 6.036e-17 1.132e-17
4255.778 9.388e-17 1.217e-17
4256.865 9.074e-17 1.218e-17
4257.951 7.199e-17 1.182e-17
4259.038 8.81e-17 1.203e-17
4260.125 9.909e-17 1.208e-17
4261.212 3.913e-17 1.055e-17
4262.298 8.077e-17 1.16e-17
4263.385 6.955e-17 1.151e-17
4264.472 6.867e-17 1.123e-17
4265.558 7.242e-17 1.13e-17
4266.645 7.595e-17 1.162e-17
4267.732 6.846e-17 1.137e-17
4268.819 9.292e-17 1.231e-17
4269.905 7.568e-17 1.144e-17
4270.992 6.192e-17 1.059e-17
4272.079 8.266e-17 1.127e-17
4273.165 9.24e-17 1.163e-17
4274.253 6.549e-17 1.084e-17
4275.34 6.658e-17 1.118e-17
4276.427 8.614e-17 1.183e-17
4277.513 5.743e-17 1.121e-17
4278.6 9.44e-17 1.194e-17
4279.688 8.516e-17 1.154e-17
4280.774 6.265e-17 1.121e-17
4281.861 7.603e-17 1.125e-17
4282.949 6.67e-17 1.175e-17
4284.036 6.654e-17 1.138e-17
4285.122 8.47e-17 1.169e-17
4286.21 7.301e-17 1.131e-17
4287.297 6.89e-17 1.127e-17
4288.383 8.689e-17 1.169e-17
4289.471 5.628e-17 1.092e-17
4290.558 6.067e-17 1.099e-17
4291.646 5.166e-17 1.066e-17
4292.732 7.097e-17 1.149e-17
4293.819 1.058e-16 1.242e-17
4294.907 6.437e-17 1.119e-17
4295.993 9.04e-17 1.214e-17
4297.081 7.718e-17 1.169e-17
4298.168 9.201e-17 1.194e-17
4299.256 6.837e-17 1.13e-17
4300.342 6.518e-17 1.123e-17
4301.43 6.773e-17 1.12e-17
4302.518 7.06e-17 1.129e-17
4303.604 8.463e-17 1.154e-17
4304.692 6.206e-17 1.097e-17
4305.779 6.853e-17 1.138e-17
4306.867 7.788e-17 1.152e-17
4307.954 6.904e-17 1.106e-17
4309.041 7.733e-17 1.145e-17
4310.129 9.912e-17 1.214e-17
4311.216 8.466e-17 1.211e-17
4312.303 7.37e-17 1.189e-17
4313.391 7.004e-17 1.226e-17
4314.479 8.208e-17 1.252e-17
4315.565 6.307e-17 1.233e-17
4316.653 8.961e-17 1.244e-17
4317.741 9.288e-17 1.254e-17
4318.828 1.123e-16 1.278e-17
4319.916 7.251e-17 1.215e-17
4321.003 6.592e-17 1.199e-17
4322.091 8.442e-17 1.212e-17
4323.178 8.06e-17 1.187e-17
4324.266 6.024e-17 1.136e-17
4325.354 9.512e-17 1.231e-17
4326.441 7.662e-17 1.218e-17
4327.529 6.051e-17 1.137e-17
4328.616 8.07e-17 1.214e-17
4329.704 5.687e-17 1.135e-17
4330.791 7.429e-17 1.18e-17
4331.879 5.531e-17 1.108e-17
4332.967 8.399e-17 1.216e-17
4334.054 8.078e-17 1.204e-17
4335.142 8.935e-17 1.229e-17
4336.23 7.16e-17 1.193e-17
4337.318 7.251e-17 1.205e-17
4338.405 4.391e-17 1.129e-17
4339.493 4.983e-17 1.162e-17
4340.581 5.164e-17 1.162e-17
4341.668 8.879e-17 1.237e-17
4342.756 7.703e-17 1.216e-17
4343.845 8.005e-17 1.189e-17
4344.932 7.699e-17 1.235e-17
4346.02 7.968e-17 1.28e-17
4347.108 8.347e-17 1.298e-17
4348.196 7.615e-17 1.327e-17
4349.283 9.001e-17 1.353e-17
4350.371 8.751e-17 1.285e-17
4351.46 8.44e-17 1.311e-17
4352.547 8.507e-17 1.29e-17
4353.635 6.712e-17 1.218e-17
4354.723 5.582e-17 1.297e-17
4355.811 7.487e-17 1.524e-17
4356.899 1.247e-16 2.206e-17
4357.987 7.225e-17 2.59e-17
4359.075 4.707e-17 2.701e-17
4360.162 1.549e-16 2.494e-17
4361.251 4.577e-17 1.861e-17
4362.339 8.83e-17 1.54e-17
4363.427 7.755e-17 1.412e-17
4364.515 7.088e-17 1.309e-17
4365.603 7.41e-17 1.317e-17
4366.691 9.049e-17 1.36e-17
4367.779 5.58e-17 1.277e-17
4368.867 7.443e-17 1.311e-17
4369.956 7.172e-17 1.276e-17
4371.044 6.071e-17 1.293e-17
4372.131 6.383e-17 1.279e-17
4373.22 6.124e-17 1.286e-17
4374.308 9.17e-17 1.36e-17
4375.396 1.138e-16 1.395e-17
4376.484 8.294e-17 1.342e-17
4377.573 8.824e-17 1.336e-17
4378.661 8.103e-17 1.284e-17
4379.749 7.285e-17 1.277e-17
4380.837 4.517e-17 1.214e-17
4381.926 8.04e-17 1.275e-17
4383.013 6.971e-17 1.287e-17
4384.102 8.146e-17 1.29e-17
4385.19 3.799e-17 1.153e-17
4386.279 5.157e-17 1.235e-17
4387.366 4.36e-17 1.197e-17
4388.455 7.992e-17 1.272e-17
4389.543 7.356e-17 1.233e-17
4390.631 7.784e-17 1.264e-17
4391.72 7.638e-17 1.268e-17
4392.808 7.529e-17 1.269e-17
4393.897 7.965e-17 1.286e-17
4394.985 8.064e-17 1.242e-17
4396.073 6.946e-17 1.232e-17
4397.162 6.59e-17 1.227e-17
4398.25 9.83e-17 1.362e-17
4399.338 6.792e-17 1.247e-17
4400.427 1.001e-16 1.351e-17
4401.516 7.147e-17 1.275e-17
4402.603 5.54e-17 1.226e-17
4403.692 7.664e-17 1.322e-17
4404.781 8.489e-17 1.322e-17
4405.869 8.116e-17 1.339e-17
4406.957 6.427e-17 1.277e-17
4408.046 6.246e-17 1.271e-17
4409.135 6.699e-17 1.225e-17
4410.223 5.657e-17 1.269e-17
4411.312 4.721e-17 1.265e-17
4412.4 7.201e-17 1.331e-17
4413.488 5.137e-17 1.267e-17
4414.577 5.402e-17 1.287e-17
4415.666 5.024e-17 1.285e-17
4416.755 7.449e-17 1.317e-17
4417.843 7.97e-17 1.317e-17
4418.931 7.853e-17 1.279e-17
4420.02 7.256e-17 1.318e-17
4421.108 1.052e-16 1.39e-17
4422.197 5.962e-17 1.262e-17
4423.286 9.313e-17 1.369e-17
4424.375 6.636e-17 1.294e-17
4425.463 7.413e-17 1.296e-17
4426.552 7.746e-17 1.328e-17
4427.641 7.297e-17 1.319e-17
4428.729 7.332e-17 1.326e-17
4429.818 6.393e-17 1.322e-17
4430.907 9.048e-17 1.329e-17
4431.996 9.584e-17 1.366e-17
4433.084 7.325e-17 1.319e-17
4434.173 8.327e-17 1.353e-17
4435.262 6.726e-17 1.267e-17
4436.35 7.83e-17 1.31e-17
4437.439 6.115e-17 1.275e-17
4438.528 9.457e-17 1.38e-17
4439.617 9.676e-17 1.369e-17
4440.705 8.411e-17 1.367e-17
4441.794 5.535e-17 1.284e-17
4442.883 7.261e-17 1.287e-17
4443.971 6.571e-17 1.292e-17
4445.06 6.196e-17 1.286e-17
4446.149 7.331e-17 1.338e-17
4447.238 9.236e-17 1.349e-17
4448.327 8.526e-17 1.353e-17
4449.416 8.131e-17 1.334e-17
4450.505 4.283e-17 1.239e-17
4451.593 9.319e-17 1.337e-17
4452.682 6.342e-17 1.3e-17
4453.771 5.009e-17 1.253e-17
4454.86 9.484e-17 1.375e-17
4455.949 6.647e-17 1.285e-17
4457.038 5.739e-17 1.302e-17
4458.127 7.233e-17 1.301e-17
4459.215 7.953e-17 1.292e-17
4460.304 7.081e-17 1.319e-17
4461.394 8.381e-17 1.358e-17
4462.483 7.086e-17 1.325e-17
4463.571 1.061e-16 1.37e-17
4464.66 8.242e-17 1.332e-17
4465.75 8.855e-17 1.369e-17
4466.838 8.056e-17 1.37e-17
4467.927 5.599e-17 1.302e-17
4469.016 9.664e-17 1.365e-17
4470.106 4.789e-17 1.296e-17
4471.194 8.99e-17 1.34e-17
4472.283 9.108e-17 1.351e-17
4473.373 7.677e-17 1.328e-17
4474.461 8.445e-17 1.343e-17
4475.55 8.222e-17 1.368e-17
4476.64 8.829e-17 1.311e-17
4477.728 7.71e-17 1.321e-17
4478.817 7.291e-17 1.314e-17
4479.907 7.245e-17 1.307e-17
4480.996 5.927e-17 1.319e-17
4482.084 7.298e-17 1.304e-17
4483.174 6.608e-17 1.304e-17
4484.263 6.913e-17 1.32e-17
4485.351 7.725e-17 1.355e-17
4486.441 6.047e-17 1.302e-17
4487.53 1.004e-16 1.368e-17
4488.62 8.229e-17 1.352e-17
4489.708 7.053e-17 1.32e-17
4490.797 8.683e-17 1.361e-17
4491.887 7.803e-17 1.362e-17
4492.975 8.389e-17 1.346e-17
4494.065 8.432e-17 1.385e-17
4495.154 5.306e-17 1.291e-17
4496.244 5.481e-17 1.279e-17
4497.332 7.426e-17 1.331e-17
4498.422 5.6e-17 1.307e-17
4499.511 8.842e-17 1.374e-17
4500.6 7.137e-17 1.354e-17
4501.689 5.402e-17 1.291e-17
4502.779 7.806e-17 1.324e-17
4503.868 1.035e-16 1.346e-17
4504.957 3.702e-17 1.26e-17
4506.046 5.729e-17 1.293e-17
4507.136 8.537e-17 1.386e-17
4508.224 6.238e-17 1.328e-17
4509.314 7.073e-17 1.367e-17
4510.403 7.998e-17 1.318e-17
4511.493 5.184e-17 1.31e-17
4512.581 8.781e-17 1.345e-17
4513.671 8.99e-17 1.371e-17
4514.76 6.843e-17 1.289e-17
4515.849 6.462e-17 1.316e-17
4516.938 6.756e-17 1.322e-17
4518.028 8.235e-17 1.321e-17
4519.118 7.114e-17 1.305e-17
4520.206 8.653e-17 1.336e-17
4521.296 7.797e-17 1.306e-17
4522.385 6.946e-17 1.305e-17
4523.474 7.19e-17 1.3e-17
4524.564 6.29e-17 1.268e-17
4525.653 1.067e-16 1.39e-17
4526.743 8.94e-17 1.353e-17
4527.831 7.176e-17 1.294e-17
4528.921 7.2e-17 1.312e-17
4530.011 8.517e-17 1.354e-17
4531.099 7.853e-17 1.311e-17
4532.189 7.013e-17 1.319e-17
4533.279 7.746e-17 1.286e-17
4534.368 7.759e-17 1.32e-17
4535.457 6.581e-17 1.276e-17
4536.547 8.97e-17 1.326e-17
4537.636 5.632e-17 1.265e-17
4538.725 8.11e-17 1.315e-17
4539.815 8.208e-17 1.325e-17
4540.904 6.781e-17 1.276e-17
4541.994 7.219e-17 1.333e-17
4543.083 7.642e-17 1.336e-17
4544.172 5.737e-17 1.276e-17
4545.262 7.54e-17 1.331e-17
4546.351 9.826e-17 1.348e-17
4547.441 7.284e-17 1.282e-17
4548.53 6.491e-17 1.257e-17
4549.62 8.637e-17 1.302e-17
4550.709 6.22e-17 1.27e-17
4551.798 8.998e-17 1.303e-17
4552.888 8.449e-17 1.321e-17
4553.977 8.159e-17 1.29e-17
4555.067 6.058e-17 1.25e-17
4556.156 4.891e-17 1.211e-17
4557.246 7.852e-17 1.277e-17
4558.335 9.125e-17 1.273e-17
4559.425 6.731e-17 1.271e-17
4560.514 8.894e-17 1.276e-17
4561.603 7.997e-17 1.269e-17
4562.693 4.504e-17 1.209e-17
4563.783 6.618e-17 1.265e-17
4564.872 6.309e-17 1.244e-17
4565.961 7.158e-17 1.27e-17
4567.051 8.156e-17 1.241e-17
4568.141 7.653e-17 1.265e-17
4569.23 6.937e-17 1.222e-17
4570.32 8.014e-17 1.246e-17
4571.409 4.346e-17 1.173e-17
4572.498 5.961e-17 1.208e-17
4573.588 1.183e-16 1.339e-17
4574.678 7.191e-17 1.232e-17
4575.768 7.771e-17 1.246e-17
4576.856 7.14e-17 1.226e-17
4577.946 7.09e-17 1.207e-17
4579.036 9.63e-17 1.283e-17
4580.125 6.924e-17 1.231e-17
4581.215 6.834e-17 1.216e-17
4582.305 7.592e-17 1.231e-17
4583.394 7.924e-17 1.24e-17
4584.483 8.969e-17 1.219e-17
4585.573 8.125e-17 1.212e-17
4586.663 1.017e-16 1.26e-17
4587.752 9.115e-17 1.238e-17
4588.842 7.294e-17 1.223e-17
4589.931 6.921e-17 1.21e-17
4591.021 6.905e-17 1.193e-17
4592.11 1.033e-16 1.248e-17
4593.2 8.147e-17 1.205e-17
4594.29 9.514e-17 1.263e-17
4595.379 6.773e-17 1.175e-17
4596.469 7.629e-17 1.195e-17
4597.558 8.069e-17 1.178e-17
4598.648 9.063e-17 1.225e-17
4599.737 8.28e-17 1.168e-17
4600.827 7.908e-17 1.199e-17
4601.917 9.031e-17 1.235e-17
4603.006 8.386e-17 1.209e-17
4604.096 8.128e-17 1.182e-17
4605.186 7.444e-17 1.144e-17
4606.276 8.479e-17 1.195e-17
4607.364 7.889e-17 1.183e-17
4608.454 6.26e-17 1.151e-17
4609.544 5.889e-17 1.136e-17
4610.633 7.146e-17 1.186e-17
4611.723 6.191e-17 1.104e-17
4612.813 7.066e-17 1.149e-17
4613.903 6.448e-17 1.152e-17
4614.992 7.596e-17 1.159e-17
4616.082 6.601e-17 1.14e-17
4617.172 9.408e-17 1.2e-17
4618.26 6.538e-17 1.142e-17
4619.35 8.716e-17 1.188e-17
4620.44 5.044e-17 1.108e-17
4621.53 6.896e-17 1.143e-17
4622.619 5.52e-17 1.113e-17
4623.709 5.635e-17 1.085e-17
4624.799 6.2e-17 1.148e-17
4625.888 7.757e-17 1.16e-17
4626.978 8.357e-17 1.178e-17
4628.068 8.171e-17 1.156e-17
4629.157 7.405e-17 1.15e-17
4630.247 5.701e-17 1.079e-17
4631.336 1.068e-16 1.232e-17
4632.426 6.86e-17 1.146e-17
4633.515 6.877e-17 1.135e-17
4634.605 7.644e-17 1.154e-17
4635.695 6.986e-17 1.118e-17
4636.784 9.095e-17 1.183e-17
4637.874 7.498e-17 1.127e-17
4638.964 7.124e-17 1.139e-17
4640.054 9.455e-17 1.183e-17
4641.143 8.753e-17 1.192e-17
4642.233 8.916e-17 1.175e-17
4643.323 7.88e-17 1.172e-17
4644.412 8.737e-17 1.157e-17
4645.502 5.166e-17 1.066e-17
4646.591 5.543e-17 1.094e-17
4647.681 7.643e-17 1.137e-17
4648.77 6.019e-17 1.075e-17
4649.86 7.126e-17 1.122e-17
4650.95 7.574e-17 1.132e-17
4652.039 4.615e-17 1.059e-17
4653.129 6.078e-17 1.127e-17
4654.219 5.499e-17 1.135e-17
4655.309 7.182e-17 1.117e-17
4656.398 9.364e-17 1.198e-17
4657.488 7.672e-17 1.154e-17
4658.578 7.865e-17 1.169e-17
4659.667 9.527e-17 1.215e-17
4660.757 5.908e-17 1.142e-17
4661.847 7.457e-17 1.149e-17
4662.937 7.186e-17 1.174e-17
4664.025 7.797e-17 1.141e-17
4665.115 5.482e-17 1.105e-17
4666.205 7.288e-17 1.164e-17
4667.294 9.802e-17 1.22e-17
4668.384 7.868e-17 1.156e-17
4669.474 7.571e-17 1.175e-17
4670.564 5.859e-17 1.135e-17
4671.653 5.759e-17 1.122e-17
4672.743 6.667e-17 1.161e-17
4673.833 6.164e-17 1.103e-17
4674.922 6.799e-17 1.132e-17
4676.012 7.893e-17 1.171e-17
4677.102 7.447e-17 1.136e-17
4678.192 5.784e-17 1.08e-17
4679.28 4.979e-17 1.061e-17
4680.37 7.058e-17 1.121e-17
4681.46 7.243e-17 1.109e-17
4682.549 8.16e-17 1.115e-17
4683.639 7.244e-17 1.072e-17
4684.729 5.606e-17 1.05e-17
4685.818 8.501e-17 1.121e-17
4686.908 6.859e-17 1.099e-17
4687.998 7.86e-17 1.097e-17
4689.088 8.625e-17 1.105e-17
4690.177 6.219e-17 1.087e-17
4691.267 5.848e-17 1.08e-17
4692.356 7.283e-17 1.085e-17
4693.445 6.825e-17 1.089e-17
4694.535 7.878e-17 1.096e-17
4695.625 6.074e-17 1.065e-17
4696.715 5.874e-17 1.036e-17
4697.804 7.302e-17 1.104e-17
4698.894 6.283e-17 1.059e-17
4699.984 8.957e-17 1.086e-17
4701.073 6.709e-17 1.069e-17
4702.163 6.381e-17 1.068e-17
4703.252 6.461e-17 1.029e-17
4704.342 6.186e-17 1.027e-17
4705.431 5.274e-17 1.046e-17
4706.521 6.659e-17 1.078e-17
4707.611 6.354e-17 1.072e-17
4708.7 7.549e-17 1.119e-17
4709.79 7.389e-17 1.087e-17
4710.88 7.58e-17 1.092e-17
4711.97 6.614e-17 1.066e-17
4713.058 6.546e-17 1.074e-17
4714.148 7.981e-17 1.099e-17
4715.238 7.651e-17 1.127e-17
4716.327 8.068e-17 1.131e-17
4717.417 6.802e-17 1.056e-17
4718.507 7.784e-17 1.112e-17
4719.597 6.49e-17 1.039e-17
4720.685 8.064e-17 1.106e-17
4721.775 4.859e-17 1.035e-17
4722.865 5.796e-17 1.046e-17
4723.954 8.615e-17 1.117e-17
4725.044 7.878e-17 1.092e-17
4726.134 7.604e-17 1.12e-17
4727.224 6.291e-17 1.081e-17
4728.312 7.627e-17 1.142e-17
4729.402 6.352e-17 1.076e-17
4730.492 7.099e-17 1.16e-17
4731.581 7.626e-17 1.152e-17
4732.671 6.16e-17 1.126e-17
4733.761 7.784e-17 1.11e-17
4734.85 7.501e-17 1.122e-17
4735.939 5.96e-17 1.104e-17
4737.029 8.474e-17 1.148e-17
4738.119 4.428e-17 1.069e-17
4739.208 6.078e-17 1.116e-17
4740.297 7.906e-17 1.153e-17
4741.387 5.765e-17 1.119e-17
4742.476 7.051e-17 1.162e-17
4743.566 5.92e-17 1.147e-17
4744.656 7.491e-17 1.141e-17
4745.745 5.778e-17 1.101e-17
4746.834 7.749e-17 1.134e-17
4747.924 8.788e-17 1.13e-17
4749.014 7.766e-17 1.069e-17
4750.102 7.473e-17 1.104e-17
4751.192 6.287e-17 1.069e-17
4752.282 5.886e-17 1.085e-17
4753.372 8.214e-17 1.113e-17
4754.46 7.057e-17 1.097e-17
4755.55 6.706e-17 1.055e-17
4756.64 6.448e-17 1.043e-17
4757.729 6.215e-17 1.027e-17
4758.818 5.899e-17 1.057e-17
4759.908 7.126e-17 1.064e-17
4760.998 7.354e-17 1.048e-17
4762.087 6.603e-17 1.06e-17
4763.176 5.861e-17 1.016e-17
4764.266 7.541e-17 1.074e-17
4765.355 7.497e-17 1.044e-17
4766.444 3.895e-17 9.706e-18
4767.534 5.715e-17 1.025e-17
4768.624 4.85e-17 9.856e-18
4769.713 5.584e-17 9.838e-18
4770.802 7.174e-17 1.042e-17
4771.892 6.508e-17 1.027e-17
4772.981 6.201e-17 1.033e-17
4774.07 7.803e-17 1.065e-17
4775.16 8.479e-17 1.128e-17
4776.25 6.381e-17 1.062e-17
4777.338 5.287e-17 1.011e-17
4778.428 5.942e-17 1.065e-17
4779.518 7.329e-17 1.091e-17
4780.606 5.95e-17 1.075e-17
4781.696 5.787e-17 1.006e-17
4782.785 6.989e-17 1.07e-17
4783.875 6.14e-17 1.047e-17
4784.964 6.9e-17 1.036e-17
4786.053 7.434e-17 1.072e-17
4787.143 4.403e-17 9.892e-18
4788.232 6.302e-17 1.038e-17
4789.321 6.929e-17 1.039e-17
4790.411 8.769e-17 1.089e-17
4791.499 5.135e-17 1.02e-17
4792.589 6.159e-17 1.059e-17
4793.678 6.59e-17 1.042e-17
4794.768 5.615e-17 1.015e-17
4795.857 5.296e-17 1.01e-17
4796.946 5.144e-17 1.017e-17
4798.036 6.866e-17 1.03e-17
4799.124 7.08e-17 1.044e-17
4800.214 6.119e-17 1.027e-17
4801.303 6.716e-17 1.07e-17
4802.393 6.837e-17 1.062e-17
4803.481 7.616e-17 1.077e-17
4804.571 5.877e-17 1.035e-17
4805.66 8.376e-17 1.103e-17
4806.749 6.118e-17 1.022e-17
4807.838 7.208e-17 1.052e-17
4808.928 7.672e-17 1.06e-17
4810.017 7.062e-17 1.054e-17
4811.106 6.726e-17 1.032e-17
4812.195 4.382e-17 9.78e-18
4813.285 7.513e-17 1.08e-17
4814.373 6.081e-17 1.013e-17
4815.463 6.675e-17 1.044e-17
4816.552 5.404e-17 1.028e-17
4817.642 7.484e-17 1.11e-17
4818.73 8.063e-17 1.08e-17
4819.819 6.541e-17 1.079e-17
4820.909 4.093e-17 9.944e-18
4821.997 5.816e-17 1.053e-17
4823.087 6.031e-17 1.058e-17
4824.176 5.485e-17 1.065e-17
4825.266 6.715e-17 1.094e-17
4826.354 4.109e-17 1.023e-17
4827.443 6.755e-17 1.093e-17
4828.533 6.501e-17 1.111e-17
4829.621 7.467e-17 1.094e-17
4830.71 6.468e-17 1.094e-17
4831.8 8.93e-17 1.125e-17
4832.889 8.129e-17 1.167e-17
4833.977 7.192e-17 1.097e-17
4835.067 5.446e-17 1.025e-17
4836.156 6.183e-17 1.075e-17
4837.244 9.165e-17 1.169e-17
4838.334 6.625e-17 1.107e-17
4839.423 7.665e-17 1.146e-17
4840.512 4.67e-17 1.053e-17
4841.601 5.527e-17 1.076e-17
4842.69 6.291e-17 1.058e-17
4843.779 5.105e-17 1.038e-17
4844.867 7.225e-17 1.063e-17
4845.957 5.935e-17 1.072e-17
4847.046 6.794e-17 1.096e-17
4848.134 6.853e-17 1.091e-17
4849.223 6.729e-17 1.11e-17
4850.313 7.034e-17 1.124e-17
4851.402 7.691e-17 1.116e-17
4852.49 5.765e-17 1.062e-17
4853.579 7.542e-17 1.118e-17
4854.668 8.141e-17 1.103e-17
4855.757 5.334e-17 1.049e-17
4856.846 7.567e-17 1.104e-17
4857.935 6.861e-17 1.077e-17
4859.024 6.16e-17 1.04e-17
4860.112 6.554e-17 1.041e-17
4861.201 8.579e-17 1.114e-17
4862.29 7.521e-17 1.121e-17
4863.379 6.777e-17 1.071e-17
4864.468 5.033e-17 1.057e-17
4865.557 6.846e-17 1.052e-17
4866.646 4.489e-17 1.029e-17
4867.734 6.59e-17 1.07e-17
4868.823 8.448e-17 1.109e-17
4869.912 5.131e-17 1.036e-17
4871.0 7.1e-17 1.049e-17
4872.089 7.147e-17 1.124e-17
4873.178 7.336e-17 1.116e-17
4874.267 7.493e-17 1.096e-17
4875.355 7.687e-17 1.111e-17
4876.444 6.627e-17 1.063e-17
4877.533 6.479e-17 1.1e-17
4878.621 6.793e-17 1.11e-17
4879.71 7.102e-17 1.083e-17
4880.799 5.837e-17 1.098e-17
4881.888 6.538e-17 1.089e-17
4882.976 8.592e-17 1.176e-17
4884.065 6.169e-17 1.114e-17
4885.154 4.742e-17 1.052e-17
4886.242 6.731e-17 1.065e-17
4887.331 6.797e-17 1.087e-17
4888.42 6.795e-17 1.074e-17
4889.508 8.614e-17 1.111e-17
4890.597 6.926e-17 1.089e-17
4891.686 6.087e-17 1.071e-17
4892.774 6.168e-17 1.07e-17
4893.862 7.676e-17 1.099e-17
4894.951 5.113e-17 1.011e-17
4896.04 7.764e-17 1.109e-17
4897.128 6.122e-17 1.066e-17
4898.217 8.995e-17 1.155e-17
4899.305 6.076e-17 1.057e-17
4900.394 7.044e-17 1.055e-17
4901.482 7.626e-17 1.083e-17
4902.571 8.306e-17 1.107e-17
4903.66 5.892e-17 1.024e-17
4904.747 8.354e-17 1.092e-17
4905.836 6.441e-17 1.092e-17
4906.925 6.065e-17 1.087e-17
4908.014 5.627e-17 1.075e-17
4909.101 8.441e-17 1.153e-17
4910.19 7.446e-17 1.084e-17
4911.279 7.548e-17 1.086e-17
4912.366 7.344e-17 1.104e-17
4913.455 7.364e-17 1.085e-17
4914.544 8.372e-17 1.122e-17
4915.632 6.192e-17 1.051e-17
4916.72 6.982e-17 1.137e-17
4917.809 5.016e-17 1.042e-17
4918.897 7.599e-17 1.098e-17
4919.985 5.535e-17 1.033e-17
4921.074 7.181e-17 1.088e-17
4922.162 6.282e-17 1.086e-17
4923.251 7.341e-17 1.094e-17
4924.338 7.693e-17 1.086e-17
4925.427 7.256e-17 1.087e-17
4926.515 5.78e-17 1.024e-17
4927.603 7.083e-17 1.088e-17
4928.691 6.091e-17 1.047e-17
4929.78 8.281e-17 1.136e-17
4930.868 5.347e-17 1.017e-17
4931.956 6.774e-17 1.086e-17
4933.044 7.007e-17 1.083e-17
4934.133 8.438e-17 1.093e-17
4935.22 7.046e-17 1.066e-17
4936.309 7.445e-17 1.085e-17
4937.397 6.541e-17 1.09e-17
4938.485 7.66e-17 1.066e-17
4939.573 8.001e-17 1.108e-17
4940.662 6.454e-17 1.07e-17
4941.75 5.365e-17 1.055e-17
4942.837 5.648e-17 1.061e-17
4943.926 7.009e-17 1.067e-17
4945.014 7.759e-17 1.084e-17
4946.101 5.338e-17 9.983e-18
4947.19 6.631e-17 1.061e-17
4948.278 6.696e-17 1.086e-17
4949.366 6.379e-17 1.057e-17
4950.454 7.023e-17 1.077e-17
4951.542 6.224e-17 1.096e-17
4952.63 6.263e-17 1.078e-17
4953.717 7.299e-17 1.13e-17
4954.806 6.588e-17 1.073e-17
4955.894 6.358e-17 1.079e-17
4956.982 6.293e-17 1.027e-17
4958.069 5.316e-17 1.032e-17
4959.157 6.2e-17 1.039e-17
4960.246 5.599e-17 1.049e-17
4961.333 5.4e-17 1.016e-17
4962.421 5.018e-17 1.016e-17
4963.509 6.541e-17 1.083e-17
4964.597 8.126e-17 1.121e-17
4965.684 4.827e-17 1.023e-17
4966.772 5.94e-17 1.082e-17
4967.861 6.506e-17 1.096e-17
4968.948 9.527e-17 1.17e-17
4970.036 8.169e-17 1.1e-17
4971.124 6.438e-17 1.1e-17
4972.212 6.045e-17 1.087e-17
4973.299 5.092e-17 1.076e-17
4974.387 6.968e-17 1.086e-17
4975.475 4.605e-17 1.06e-17
4976.562 5.048e-17 1.106e-17
4977.65 6.297e-17 1.101e-17
4978.738 6.054e-17 1.145e-17
4979.826 6.886e-17 1.182e-17
4980.913 6.862e-17 1.186e-17
4982.001 5.799e-17 1.124e-17
4983.088 7.827e-17 1.197e-17
4984.175 4.954e-17 1.085e-17
4985.263 5.144e-17 1.137e-17
4986.351 5.335e-17 1.14e-17
4987.438 8.907e-17 1.189e-17
4988.526 6.167e-17 1.118e-17
4989.614 4.96e-17 1.121e-17
4990.701 5.883e-17 1.12e-17
4991.788 5.586e-17 1.106e-17
4992.876 6.227e-17 1.096e-17
4993.964 3.381e-17 1.039e-17
4995.051 7.483e-17 1.11e-17
4996.138 6.676e-17 1.079e-17
4997.226 5.556e-17 1.047e-17
4998.314 5.696e-17 1.07e-17
4999.4 4.786e-17 9.847e-18
5000.488 7.084e-17 1.057e-17
5001.576 6.198e-17 1.054e-17
5002.662 4.23e-17 1.008e-17
5003.75 5.383e-17 1.02e-17
5004.838 5.863e-17 1.037e-17
5005.925 6.237e-17 1.027e-17
5007.012 6.566e-17 1.047e-17
5008.1 4.087e-17 9.715e-18
5009.187 5.803e-17 1.023e-17
5010.274 7.058e-17 1.065e-17
5011.361 6.867e-17 1.066e-17
5012.449 6.939e-17 1.059e-17
5013.536 4.919e-17 9.804e-18
5014.623 8.051e-17 1.076e-17
5015.71 7.086e-17 1.061e-17
5016.798 6.749e-17 1.086e-17
5017.884 5.901e-17 1.026e-17
5018.972 6.309e-17 1.04e-17
5020.059 4.662e-17 1.01e-17
5021.146 6.091e-17 1.034e-17
5022.233 5.135e-17 1.016e-17
5023.32 6.229e-17 1.031e-17
5024.408 6.151e-17 1.036e-17
5025.494 7.18e-17 1.073e-17
5026.581 3.211e-17 9.508e-18
5027.669 5.784e-17 1.015e-17
5028.756 5.187e-17 9.977e-18
5029.842 5.603e-17 1.043e-17
5030.929 5.27e-17 1.023e-17
5032.017 7.92e-17 1.118e-17
5033.103 7.701e-17 1.102e-17
5034.19 7.057e-17 1.071e-17
5035.277 6.367e-17 1.035e-17
5036.364 4.907e-17 1.018e-17
5037.451 8.064e-17 1.112e-17
5038.538 6.41e-17 1.047e-17
5039.625 6.886e-17 1.042e-17
5040.711 5.686e-17 1.031e-17
5041.798 6.557e-17 1.065e-17
5042.885 8.292e-17 1.089e-17
5043.971 7.609e-17 1.087e-17
5045.058 7.563e-17 1.088e-17
5046.146 6.513e-17 1.068e-17
5047.233 6.919e-17 1.026e-17
5048.319 4.492e-17 1.039e-17
5049.406 4.493e-17 9.846e-18
5050.493 6.68e-17 1.063e-17
5051.579 5.564e-17 1.047e-17
5052.665 5.407e-17 1.033e-17
5053.752 7.917e-17 1.109e-17
5054.839 5.003e-17 9.954e-18
5055.925 4.216e-17 1.01e-17
5057.012 5.063e-17 1.046e-17
5058.099 5.159e-17 1.045e-17
5059.185 5.804e-17 1.06e-17
5060.272 5.594e-17 1.012e-17
5061.358 8.538e-17 1.133e-17
5062.445 6.902e-17 1.121e-17
5063.531 9.054e-17 1.132e-17
5064.618 7.396e-17 1.106e-17
5065.705 6.474e-17 1.091e-17
5066.79 6.133e-17 1.102e-17
5067.877 5.272e-17 1.039e-17
5068.964 4.959e-17 1.046e-17
5070.05 4.137e-17 1.059e-17
5071.136 6.089e-17 1.089e-17
5072.223 7.288e-17 1.124e-17
5073.309 5.827e-17 1.085e-17
5074.395 9.032e-17 1.158e-17
5075.482 5.257e-17 1.027e-17
5076.568 6.248e-17 1.087e-17
5077.654 6.776e-17 1.068e-17
5078.74 6.23e-17 1.082e-17
5079.827 3.966e-17 1.032e-17
5080.913 6.019e-17 1.129e-17
5081.999 6.223e-17 1.158e-17
5083.085 4.662e-17 1.175e-17
5084.172 5.808e-17 1.198e-17
5085.257 7.573e-17 1.257e-17
5086.344 7.1e-17 1.202e-17
5087.43 5.649e-17 1.202e-17
5088.516 7.327e-17 1.225e-17
5089.602 5.101e-17 1.108e-17
5090.688 4.339e-17 1.085e-17
5091.774 6.459e-17 1.121e-17
5092.86 5.165e-17 1.071e-17
5093.946 4.741e-17 1.009e-17
5095.032 4.438e-17 1.027e-17
5096.119 4.927e-17 1.025e-17
5097.204 5.009e-17 1.075e-17
5098.29 7.602e-17 1.14e-17
5099.376 4.203e-17 1.066e-17
5100.461 7.208e-17 1.139e-17
5101.548 6.299e-17 1.111e-17
5102.634 6.332e-17 1.138e-17
5103.72 6.496e-17 1.091e-17
5104.805 7.033e-17 1.064e-17
5105.891 6.616e-17 1.066e-17
5106.977 5.958e-17 1.082e-17
5108.062 7.429e-17 1.105e-17
5109.148 7.558e-17 1.116e-17
5110.234 4.931e-17 1.027e-17
5111.32 6.125e-17 1.099e-17
5112.405 8.046e-17 1.126e-17
5113.491 6.246e-17 1.076e-17
5114.577 6.865e-17 1.111e-17
5115.662 5.5e-17 1.038e-17
5116.748 6.267e-17 1.115e-17
5117.834 6.307e-17 1.079e-17
5118.92 5.72e-17 1.051e-17
5120.005 7.259e-17 1.083e-17
5121.09 5.548e-17 1.056e-17
5122.176 6.519e-17 1.077e-17
5123.261 3.86e-17 1.035e-17
5124.347 7.215e-17 1.107e-17
5125.433 6.368e-17 1.075e-17
5126.517 6.458e-17 1.066e-17
5127.603 7.359e-17 1.103e-17
5128.689 6.478e-17 1.078e-17
5129.774 5.655e-17 1.05e-17
5130.859 6.536e-17 1.087e-17
5131.945 6.499e-17 1.104e-17
5133.03 3.695e-17 1.025e-17
5134.115 6.164e-17 1.091e-17
5135.201 6.847e-17 1.115e-17
5136.286 4.957e-17 1.047e-17
5137.372 6.458e-17 1.103e-17
5138.456 8.603e-17 1.152e-17
5139.542 4.255e-17 1.058e-17
5140.627 5.818e-17 1.071e-17
5141.712 8.327e-17 1.143e-17
5142.797 6.054e-17 1.124e-17
5143.882 5.378e-17 1.071e-17
5144.968 4.954e-17 1.073e-17
5146.052 7.585e-17 1.14e-17
5147.138 8.276e-17 1.159e-17
5148.223 6.737e-17 1.142e-17
5149.307 6.144e-17 1.106e-17
5150.392 7.291e-17 1.159e-17
5151.478 6.054e-17 1.146e-17
5152.563 6.277e-17 1.155e-17
5153.647 4.468e-17 1.089e-17
5154.732 7.582e-17 1.201e-17
5155.818 7.003e-17 1.183e-17
5156.902 6.266e-17 1.13e-17
5157.987 5.777e-17 1.131e-17
5159.072 4.011e-17 1.098e-17
5160.157 6.286e-17 1.095e-17
5161.241 5.899e-17 1.115e-17
5162.326 5.304e-17 1.125e-17
5163.411 6.689e-17 1.133e-17
5164.495 4.074e-17 1.065e-17
5165.58 7.34e-17 1.166e-17
5166.665 4.851e-17 1.085e-17
5167.75 5.326e-17 1.092e-17
5168.834 3.882e-17 1.004e-17
5169.919 6.017e-17 1.092e-17
5171.004 5.549e-17 1.109e-17
5172.088 6.526e-17 1.109e-17
5173.173 6.849e-17 1.114e-17
5174.258 5.15e-17 1.084e-17
5175.342 6.863e-17 1.123e-17
5176.426 7.808e-17 1.173e-17
5177.511 4.991e-17 1.11e-17
5178.596 3.603e-17 1.066e-17
5179.68 5.668e-17 1.101e-17
5180.764 4.885e-17 1.088e-17
5181.849 5.769e-17 1.086e-17
5182.933 6.768e-17 1.108e-17
5184.017 7.445e-17 1.123e-17
5185.102 7.033e-17 1.125e-17
5186.187 5.196e-17 1.094e-17
5187.27 7.187e-17 1.13e-17
5188.355 6.179e-17 1.123e-17
5189.439 6.404e-17 1.166e-17
5190.523 7.197e-17 1.182e-17
5191.607 7.62e-17 1.158e-17
5192.692 6.293e-17 1.135e-17
5193.776 6.214e-17 1.147e-17
5194.859 6.355e-17 1.117e-17
5195.944 5.445e-17 1.158e-17
5197.028 6.185e-17 1.153e-17
5198.112 7.259e-17 1.236e-17
5199.196 5.025e-17 1.183e-17
5200.28 4.595e-17 1.147e-17
5201.365 7.22e-17 1.217e-17
5202.448 2.718e-17 1.123e-17
5203.532 5.756e-17 1.21e-17
5204.616 5.874e-17 1.147e-17
5205.699 6.412e-17 1.145e-17
5206.784 8.294e-17 1.221e-17
5207.868 4.838e-17 1.073e-17
5208.952 5.908e-17 1.123e-17
5210.035 5.344e-17 1.111e-17
5211.119 5.329e-17 1.144e-17
5212.203 4.354e-17 1.102e-17
5213.286 6.471e-17 1.141e-17
5214.37 6.114e-17 1.152e-17
5215.454 7.69e-17 1.22e-17
5216.538 5.394e-17 1.111e-17
5217.621 4.946e-17 1.131e-17
5218.705 4.08e-17 1.075e-17
5219.789 6.112e-17 1.137e-17
5220.872 4.84e-17 1.13e-17
5221.956 4.945e-17 1.126e-17
5223.039 4.929e-17 1.153e-17
5224.123 5.642e-17 1.14e-17
5225.206 4.155e-17 1.102e-17
5226.29 5.18e-17 1.123e-17
5227.374 5.543e-17 1.14e-17
5228.456 6.114e-17 1.138e-17
5229.54 6.11e-17 1.164e-17
5230.624 4.905e-17 1.124e-17
5231.706 6.246e-17 1.149e-17
5232.79 6.363e-17 1.146e-17
5233.873 6.67e-17 1.165e-17
5234.957 5.815e-17 1.138e-17
5236.04 3.629e-17 1.061e-17
5237.123 6.158e-17 1.136e-17
5238.207 6.108e-17 1.188e-17
5239.289 4.256e-17 1.146e-17
5240.372 5.452e-17 1.157e-17
5241.456 7.147e-17 1.212e-17
5242.539 6.855e-17 1.144e-17
5243.622 5.166e-17 1.157e-17
5244.705 7.733e-17 1.4e-17
5245.788 5.754e-17 1.365e-17
5246.871 4.312e-17 1.283e-17
5247.954 4.59e-17 1.337e-17
5249.037 7.055e-17 1.415e-17
5250.12 5.136e-17 1.342e-17
5251.203 2.288e-17 1.292e-17
5252.286 5.957e-17 1.347e-17
5253.369 7.575e-17 1.434e-17
5254.451 7.026e-17 1.394e-17
5255.534 6.126e-17 1.409e-17
5256.617 6.654e-17 1.444e-17
5257.7 6.139e-17 1.404e-17
5258.782 7.336e-17 1.433e-17
5259.865 5.514e-17 1.347e-17
5260.948 6.424e-17 1.359e-17
5262.03 6.741e-17 1.378e-17
5263.113 3.89e-17 1.271e-17
5264.196 5.597e-17 1.313e-17
5265.279 4.517e-17 1.282e-17
5266.361 4.353e-17 1.288e-17
5267.444 5.423e-17 1.356e-17
5268.526 4.523e-17 1.277e-17
5269.608 3.796e-17 1.241e-17
5270.691 5.281e-17 1.329e-17
5271.774 4.443e-17 1.298e-17
5272.856 5.169e-17 1.287e-17
5273.938 3.659e-17 1.306e-17
5275.021 4.109e-17 1.333e-17
5276.103 4.587e-17 1.333e-17
5277.185 4.188e-17 1.299e-17
5278.268 3.337e-17 1.322e-17
5279.35 3.982e-17 1.257e-17
5280.432 2.938e-17 1.292e-17
5281.514 6.341e-17 1.396e-17
5282.597 7.522e-17 1.425e-17
5283.679 8.416e-17 1.436e-17
5284.76 7.514e-17 1.443e-17
5285.843 5.189e-17 1.354e-17
5286.925 5.749e-17 1.356e-17
5288.007 4.346e-17 1.35e-17
5289.089 4.605e-17 1.373e-17
5290.171 6.625e-17 1.445e-17
5291.253 7.943e-17 1.491e-17
5292.335 5.655e-17 1.431e-17
5293.417 7.547e-17 1.504e-17
5294.499 5.758e-17 1.42e-17
5295.58 5.278e-17 1.384e-17
5296.662 7.308e-17 1.515e-17
5297.744 4.505e-17 1.421e-17
5298.826 2.687e-17 1.355e-17
5299.908 4.607e-17 1.422e-17
5300.99 5.347e-17 1.449e-17
5302.072 5.292e-17 1.484e-17
5303.153 6.152e-17 1.444e-17
5304.234 8.919e-17 1.534e-17
5305.316 4.039e-17 1.39e-17
5306.398 7.231e-17 1.526e-17
5307.479 4.863e-17 1.403e-17
5308.561 5.72e-17 1.51e-17
5309.643 5.356e-17 1.453e-17
5310.724 7.532e-17 1.535e-17
5311.805 5.284e-17 1.482e-17
5312.887 5.353e-17 1.516e-17
5313.969 5.487e-17 1.542e-17
5315.049 6.631e-17 1.495e-17
5316.131 5.065e-17 1.489e-17
5317.213 5.599e-17 1.508e-17
5318.293 4.574e-17 1.497e-17
5319.375 6.83e-17 1.599e-17
5320.456 4.649e-17 1.559e-17
5321.538 5.172e-17 1.495e-17
5322.618 5.101e-17 1.473e-17
5323.7 5.776e-17 1.58e-17
5324.781 6.923e-17 1.611e-17
5325.862 5.518e-17 1.55e-17
5326.943 5.595e-17 1.529e-17
5328.024 6.064e-17 1.57e-17
5329.106 6.821e-17 1.613e-17
5330.186 6.124e-17 1.58e-17
5331.267 5.786e-17 1.569e-17
5332.348 6.077e-17 1.619e-17
5333.429 6.538e-17 1.645e-17
5334.51 4.444e-17 1.546e-17
5335.591 5.404e-17 1.551e-17
5336.672 6.107e-17 1.584e-17
5337.752 7.843e-17 1.687e-17
5338.833 8.26e-17 1.681e-17
5339.914 4.392e-17 1.56e-17
5340.994 4.994e-17 1.639e-17
5342.075 7.479e-17 1.687e-17
5343.156 4.104e-17 1.563e-17
5344.236 5.264e-17 1.647e-17
5345.317 4.197e-17 1.559e-17
5346.398 6.393e-17 1.635e-17
5347.479 4.8e-17 1.611e-17
5348.559 2.346e-17 1.493e-17
5349.639 5.135e-17 1.652e-17
5350.72 4.997e-17 1.665e-17
5351.8 5.143e-17 1.625e-17
5352.88 6.469e-17 1.679e-17
5353.961 5.44e-17 1.694e-17
5355.042 5.983e-17 1.706e-17
5356.121 4.06e-17 1.6e-17
5357.202 7.479e-17 1.771e-17
5358.282 6.848e-17 1.727e-17
5359.362 6.079e-17 1.641e-17
5360.442 5.88e-17 1.674e-17
5361.523 6.756e-17 1.663e-17
5362.603 4.642e-17 1.651e-17
5363.683 4.596e-17 1.615e-17
5364.763 4.442e-17 1.575e-17
5365.843 6.513e-17 1.655e-17
5366.923 7.483e-17 1.702e-17
5368.003 7.168e-17 1.676e-17
5369.083 5.529e-17 1.59e-17
5370.164 5.276e-17 1.621e-17
5371.243 5.917e-17 1.658e-17
5372.323 6.277e-17 1.596e-17
5373.403 4.561e-17 1.58e-17
5374.482 6.075e-17 1.672e-17
5375.562 4.456e-17 1.611e-17
5376.642 5.29e-17 1.605e-17
5377.722 5.625e-17 1.632e-17
5378.801 3.906e-17 1.577e-17
5379.881 5.58e-17 1.646e-17
5380.961 5.374e-17 1.612e-17
5382.04 6.478e-17 1.63e-17
5383.12 5.185e-17 1.623e-17
5384.2 3.862e-17 1.55e-17
5385.28 5.206e-17 1.571e-17
5386.358 3.592e-17 1.55e-17
5387.438 5.463e-17 1.61e-17
5388.518 5.777e-17 1.593e-17
5389.596 5.209e-17 1.615e-17
5390.676 6.157e-17 1.632e-17
5391.756 5.161e-17 1.623e-17
5392.835 5.812e-17 1.657e-17
5393.914 5.591e-17 1.634e-17
5394.993 5.254e-17 1.606e-17
5396.073 5.501e-17 1.62e-17
5397.151 3.901e-17 1.587e-17
5398.231 2.984e-17 1.552e-17
5399.31 3.239e-17 1.565e-17
5400.39 6.173e-17 1.608e-17
5401.468 7.004e-17 1.619e-17
5402.547 5.571e-17 1.604e-17
5403.627 6.901e-17 1.623e-17
5404.705 6.664e-17 1.609e-17
5405.784 6.192e-17 1.59e-17
5406.863 5.375e-17 1.574e-17
5407.941 3.58e-17 1.553e-17
5409.021 6.601e-17 1.605e-17
5410.1 3.536e-17 1.548e-17
5411.179 6.064e-17 1.628e-17
5412.257 6.174e-17 1.62e-17
5413.336 4.465e-17 1.551e-17
5414.415 5.078e-17 1.645e-17
5415.493 5.72e-17 1.624e-17
5416.572 5.468e-17 1.649e-17
5417.651 3.798e-17 1.595e-17
5418.729 5.361e-17 1.613e-17
5419.807 5.01e-17 1.62e-17
5420.886 3.776e-17 1.581e-17
5421.965 4.432e-17 1.609e-17
5423.042 5.369e-17 1.63e-17
5424.121 5.376e-17 1.589e-17
5425.2 6.447e-17 1.606e-17
5426.278 6.834e-17 1.623e-17
5427.356 5.939e-17 1.605e-17
5428.435 4.385e-17 1.569e-17
5429.513 4.262e-17 1.549e-17
5430.591 3.631e-17 1.544e-17
5431.669 5.46e-17 1.6e-17
5432.748 4.661e-17 1.568e-17
5433.826 4.245e-17 1.532e-17
5434.903 3.746e-17 1.546e-17
5435.982 3.985e-17 1.565e-17
5437.06 4.363e-17 1.59e-17
5438.137 4.522e-17 1.587e-17
5439.215 3.944e-17 1.547e-17
5440.294 6.389e-17 1.62e-17
5441.372 4.709e-17 1.588e-17
5442.449 4.001e-17 1.546e-17
5443.527 2.438e-17 1.536e-17
5444.605 3.981e-17 1.58e-17
5445.682 5.515e-17 1.61e-17
5446.76 6.026e-17 1.6e-17
5447.838 4.846e-17 1.584e-17
5448.916 4.779e-17 1.568e-17
5449.993 3.696e-17 1.536e-17
5451.071 3.576e-17 1.557e-17
5452.149 5.526e-17 1.598e-17
5453.226 7.145e-17 1.62e-17
5454.303 5.358e-17 1.6e-17
5455.381 5.015e-17 1.626e-17
5456.459 6.014e-17 1.692e-17
5457.536 5.252e-17 1.731e-17
5458.613 5.57e-17 1.905e-17
5459.691 5.655e-17 2.028e-17
5460.767 6.517e-17 2.082e-17
5461.845 2.902e-17 1.993e-17
5462.922 6.908e-17 1.937e-17
5464.0 7.018e-17 1.835e-17
5465.076 4.431e-17 1.727e-17
5466.154 4.807e-17 1.676e-17
5467.231 4.742e-17 1.632e-17
5468.308 5.25e-17 1.636e-17
5469.385 6.217e-17 1.643e-17
5470.462 3.978e-17 1.568e-17
5471.539 3.42e-17 1.551e-17
5472.616 4.956e-17 1.571e-17
5473.693 5.286e-17 1.567e-17
5474.77 6.15e-17 1.588e-17
5475.846 5.433e-17 1.595e-17
5476.923 5.426e-17 1.582e-17
5478.0 4.879e-17 1.582e-17
5479.076 5.713e-17 1.595e-17
5480.153 3.653e-17 1.55e-17
5481.23 4.771e-17 1.574e-17
5482.307 6.036e-17 1.622e-17
5483.383 4.909e-17 1.605e-17
5484.46 4.206e-17 1.574e-17
5485.537 3.705e-17 1.545e-17
5486.612 3.979e-17 1.541e-17
5487.689 3.879e-17 1.512e-17
5488.766 4.732e-17 1.54e-17
5489.842 5.502e-17 1.551e-17
5490.918 6.013e-17 1.552e-17
5491.995 3.064e-17 1.474e-17
5493.071 4.386e-17 1.527e-17
5494.147 6.208e-17 1.574e-17
5495.223 5.597e-17 1.516e-17
5496.3 4.287e-17 1.482e-17
5497.376 5.13e-17 1.52e-17
5498.452 5.207e-17 1.511e-17
5499.528 5.298e-17 1.489e-17
5500.604 5.368e-17 1.476e-17
5501.68 5.205e-17 1.493e-17
5502.756 7.387e-17 1.546e-17
5503.832 5.461e-17 1.487e-17
5504.908 5.224e-17 1.444e-17
5505.983 5.015e-17 1.453e-17
5507.059 4.16e-17 1.441e-17
5508.135 4.087e-17 1.426e-17
5509.211 5.426e-17 1.429e-17
5510.287 3.98e-17 1.395e-17
5511.363 4.317e-17 1.408e-17
5512.438 5.483e-17 1.443e-17
5513.513 4.766e-17 1.414e-17
5514.589 5.101e-17 1.432e-17
5515.665 7.408e-17 1.464e-17
5516.74 6.68e-17 1.445e-17
5517.816 5.831e-17 1.446e-17
5518.891 6.115e-17 1.426e-17
5519.967 5.016e-17 1.372e-17
5521.042 4.812e-17 1.359e-17
5522.117 4.718e-17 1.362e-17
5523.193 5.005e-17 1.348e-17
5524.267 3.218e-17 1.315e-17
5525.343 2.462e-17 1.297e-17
5526.418 4.215e-17 1.311e-17
5527.494 4.173e-17 1.323e-17
5528.568 6.428e-17 1.333e-17
5529.644 5.428e-17 1.3e-17
5530.719 4.252e-17 1.277e-17
5531.793 5.829e-17 1.291e-17
5532.868 5.105e-17 1.287e-17
5533.944 5.155e-17 1.265e-17
5535.019 4.918e-17 1.263e-17
5536.093 6.121e-17 1.296e-17
5537.168 6.361e-17 1.282e-17
5538.243 3.723e-17 1.21e-17
5539.317 1.127e-17 1.092e-17
5539.481 5.094e-17 1.023e-17
5541.0 5.185e-17 1.043e-17
5542.518 4.995e-17 1.023e-17
5544.036 4.166e-17 1.02e-17
5545.554 5.724e-17 1.039e-17
5547.072 5.223e-17 1.028e-17
5548.591 6.028e-17 1.015e-17
5550.109 4.809e-17 1.002e-17
5551.627 6.338e-17 1.016e-17
5553.146 3.454e-17 9.435e-18
5554.664 4.187e-17 9.882e-18
5556.182 5.468e-17 9.903e-18
5557.7 3.683e-17 9.621e-18
5559.219 6.394e-17 1.009e-17
5560.738 5.517e-17 9.723e-18
5562.256 3.973e-17 9.597e-18
5563.775 5.871e-17 1e-17
5565.293 4.481e-17 9.905e-18
5566.812 5.468e-17 9.813e-18
5568.331 2.965e-17 9.414e-18
5569.849 6.228e-17 9.948e-18
5571.368 4.877e-17 1.121e-17
5572.886 8.02e-17 1.62e-17
5574.405 5.004e-17 1.839e-17
5575.924 5.082e-17 1.984e-17
5577.442 8.904e-17 2.038e-17
5578.961 1.001e-16 1.797e-17
5580.479 3.368e-17 1.465e-17
5581.999 3.386e-17 1.313e-17
5583.518 4.106e-17 1.183e-17
5585.036 6.419e-17 1.091e-17
5586.555 4.663e-17 1.024e-17
5588.074 4.618e-17 9.828e-18
5589.593 6.3e-17 9.824e-18
5591.112 5.094e-17 9.396e-18
5592.631 4.647e-17 9.482e-18
5594.15 3.652e-17 9.034e-18
5595.669 6.2e-17 9.515e-18
5597.188 5.681e-17 9.456e-18
5598.708 2.986e-17 9.096e-18
5600.226 4.64e-17 9.089e-18
5601.746 3.174e-17 9.039e-18
5603.264 5.086e-17 9.416e-18
5604.784 6.324e-17 9.477e-18
5606.303 7.212e-17 9.569e-18
5607.822 5.899e-17 9.271e-18
5609.342 3.658e-17 8.877e-18
5610.86 6.424e-17 9.311e-18
5612.38 5.786e-17 9.319e-18
5613.899 4.456e-17 9.12e-18
5615.419 3.831e-17 8.788e-18
5616.938 6.767e-17 9.399e-18
5618.457 4.454e-17 8.913e-18
5619.977 2.537e-17 8.737e-18
5621.496 3.025e-17 8.808e-18
5623.016 3.682e-17 8.731e-18
5624.536 4.862e-17 9.016e-18
5626.055 3.142e-17 8.7e-18
5627.575 4.822e-17 8.931e-18
5629.094 4.249e-17 8.644e-18
5630.614 4.773e-17 8.89e-18
5632.134 4.733e-17 8.837e-18
5633.653 4.541e-17 8.619e-18
5635.173 6.041e-17 8.929e-18
5636.692 3.349e-17 8.56e-18
5638.212 3.844e-17 8.704e-18
5639.732 6.918e-17 9.402e-18
5641.251 4.513e-17 9.058e-18
5642.772 3.289e-17 8.863e-18
5644.291 6.443e-17 9.348e-18
5645.811 5.077e-17 9.141e-18
5647.331 4.637e-17 9.084e-18
5648.851 5.718e-17 9.091e-18
5650.371 3.637e-17 8.806e-18
5651.89 5.604e-17 9.099e-18
5653.411 6.09e-17 9.13e-18
5654.931 6.51e-17 9.305e-18
5656.451 5.498e-17 9.003e-18
5657.971 5.414e-17 8.994e-18
5659.491 5.605e-17 9.011e-18
5661.011 5.967e-17 9.017e-18
5662.531 3.794e-17 8.809e-18
5664.051 6.002e-17 9.206e-18
5665.572 5.689e-17 9.069e-18
5667.091 4.123e-17 9.095e-18
5668.612 5.105e-17 9.169e-18
5670.132 4.82e-17 9.195e-18
5671.652 4.408e-17 9.022e-18
5673.173 5.091e-17 9.171e-18
5674.693 5.274e-17 9.063e-18
5676.214 5.192e-17 9.196e-18
5677.733 6.618e-17 9.276e-18
5679.254 5.42e-17 9.352e-18
5680.775 8.001e-17 9.69e-18
5682.295 7.728e-17 9.851e-18
5683.816 5.006e-17 9.683e-18
5685.336 7.23e-17 1.009e-17
5686.857 6.333e-17 1.007e-17
5688.378 5.351e-17 9.962e-18
5689.897 4.68e-17 9.746e-18
5691.418 3.421e-17 9.537e-18
5692.939 4.871e-17 9.337e-18
5694.46 4.9e-17 9.251e-18
5695.981 4.34e-17 9.019e-18
5697.501 5.324e-17 9.005e-18
5699.022 5.454e-17 8.892e-18
5700.542 5.619e-17 8.879e-18
5702.063 3.995e-17 8.617e-18
5703.583 4.916e-17 8.654e-18
5705.105 4.49e-17 8.34e-18
5706.626 5.3e-17 8.446e-18
5708.146 4.403e-17 8.286e-18
5709.667 5.751e-17 8.461e-18
5711.188 4.35e-17 8.163e-18
5712.709 4.854e-17 8.375e-18
5714.23 3.802e-17 8.18e-18
5715.751 5.554e-17 8.301e-18
5717.272 5.34e-17 8.261e-18
5718.793 4.304e-17 8.132e-18
5720.314 4.792e-17 8.156e-18
5721.836 4.78e-17 8.042e-18
5723.356 5.283e-17 8.232e-18
5724.878 5.038e-17 7.985e-18
5726.398 4.504e-17 8.111e-18
5727.92 4.408e-17 7.812e-18
5729.441 5.891e-17 8.278e-18
5730.962 4.052e-17 7.88e-18
5732.484 5.85e-17 8.177e-18
5734.004 4.599e-17 7.863e-18
5735.526 4.568e-17 7.945e-18
5737.048 5.864e-17 7.951e-18
5738.569 4.558e-17 8.013e-18
5740.09 4.305e-17 7.883e-18
5741.611 5.839e-17 8.035e-18
5743.133 5.61e-17 7.964e-18
5744.655 6.316e-17 8.113e-18
5746.176 4.508e-17 7.803e-18
5747.698 5.508e-17 7.939e-18
5749.219 4.736e-17 7.885e-18
5750.74 4.428e-17 7.977e-18
5752.261 4.372e-17 7.911e-18
5753.783 6.857e-17 8.191e-18
5755.305 4.896e-17 7.852e-18
5756.826 4.161e-17 7.832e-18
5758.349 3.377e-17 7.797e-18
5759.87 6.81e-17 8.286e-18
5761.392 5.665e-17 8.217e-18
5762.914 5.496e-17 8.158e-18
5764.435 6.001e-17 8.452e-18
5765.957 5.672e-17 8.653e-18
5767.478 4.943e-17 8.636e-18
5769.001 5.122e-17 8.798e-18
5770.523 4.22e-17 8.581e-18
5772.044 4.064e-17 8.35e-18
5773.566 5.151e-17 8.238e-18
5775.088 5.003e-17 8.087e-18
5776.61 5.147e-17 8.036e-18
5778.133 4.338e-17 7.931e-18
5779.654 4.887e-17 7.994e-18
5781.176 5.498e-17 8.067e-18
5782.698 3.772e-17 7.762e-18
5784.22 3.769e-17 7.842e-18
5785.743 4.936e-17 8.255e-18
5787.264 5.113e-17 8.51e-18
5788.787 2.632e-17 8.203e-18
5790.308 4.332e-17 8.55e-18
5791.831 4.832e-17 8.444e-18
5793.353 4.641e-17 8.285e-18
5794.875 5.483e-17 8.327e-18
5796.398 3.254e-17 7.847e-18
5797.92 5.183e-17 8.014e-18
5799.442 4.066e-17 7.881e-18
5800.964 4e-17 7.921e-18
5802.487 3.183e-17 7.762e-18
5804.01 5.102e-17 7.886e-18
5805.531 4.21e-17 7.809e-18
5807.054 5.409e-17 7.917e-18
5808.576 4.894e-17 7.902e-18
5810.099 4.651e-17 7.877e-18
5811.622 5.37e-17 7.895e-18
5813.144 4.538e-17 7.747e-18
5814.667 4.319e-17 7.814e-18
5816.189 5.338e-17 7.906e-18
5817.712 5.488e-17 7.846e-18
5819.235 3.869e-17 7.784e-18
5820.757 4.506e-17 7.747e-18
5822.28 4.314e-17 7.807e-18
5823.802 4.832e-17 7.872e-18
5825.325 5.289e-17 7.957e-18
5826.848 3.913e-17 7.76e-18
5828.37 5.413e-17 7.954e-18
5829.893 4.402e-17 7.843e-18
5831.416 5.245e-17 7.938e-18
5832.939 4.639e-17 7.977e-18
5834.461 4.115e-17 7.917e-18
5835.984 4.16e-17 7.984e-18
5837.508 5.628e-17 8.051e-18
5839.03 6.271e-17 8.209e-18
5840.553 3.002e-17 7.721e-18
5842.076 4.67e-17 8.014e-18
5843.599 4.99e-17 8.012e-18
5845.122 4.364e-17 7.889e-18
5846.645 5.185e-17 8.004e-18
5848.168 3.624e-17 8.012e-18
5849.691 5.74e-17 8.084e-18
5851.214 5.332e-17 8.144e-18
5852.738 3.572e-17 7.937e-18
5854.26 3.854e-17 7.982e-18
5855.784 5.264e-17 7.972e-18
5857.307 3.796e-17 7.916e-18
5858.83 6.558e-17 8.212e-18
5860.354 5.402e-17 8.203e-18
5861.876 4.205e-17 8.204e-18
5863.4 3.329e-17 8.307e-18
5864.923 4.03e-17 8.539e-18
5866.447 3.556e-17 8.576e-18
5867.969 4.088e-17 8.521e-18
5869.493 3.434e-17 8.392e-18
5871.017 4.669e-17 8.453e-18
5872.54 4.607e-17 8.499e-18
5874.064 4.512e-17 8.263e-18
5875.586 4.728e-17 8.296e-18
5877.11 5.728e-17 8.375e-18
5878.634 4.876e-17 8.151e-18
5880.157 5.391e-17 8.169e-18
5881.681 4.901e-17 8.208e-18
5883.204 5.51e-17 8.53e-18
5884.728 3.691e-17 1.013e-17
5886.252 4.381e-17 1.237e-17
5887.775 3.633e-17 1.352e-17
5889.299 3.897e-17 1.41e-17
5890.822 3.565e-17 1.447e-17
5892.347 5.152e-17 1.445e-17
5893.871 4.42e-17 1.42e-17
5895.394 6.796e-17 1.407e-17
5896.918 4.404e-17 1.288e-17
5898.441 1.706e-17 1.072e-17
5899.966 4.267e-17 9.766e-18
5901.49 3.905e-17 9.053e-18
5903.013 4.859e-17 8.672e-18
5904.537 5.415e-17 8.408e-18
5906.061 3.808e-17 8.206e-18
5907.585 4.126e-17 8.093e-18
5909.109 3.704e-17 7.949e-18
5910.633 5.134e-17 8.271e-18
5912.157 3.589e-17 8.195e-18
5913.681 3.554e-17 8.161e-18
5915.205 3.414e-17 8.275e-18
5916.729 2.915e-17 8.114e-18
5918.253 3.337e-17 8.021e-18
5919.778 3.897e-17 8.064e-18
5921.301 3.995e-17 8.061e-18
5922.826 4.714e-17 8.194e-18
5924.35 4.497e-17 8.282e-18
5925.874 4.267e-17 8.06e-18
5927.399 5.007e-17 8.258e-18
5928.922 4.989e-17 8.443e-18
5930.447 4.668e-17 8.378e-18
5931.971 3.968e-17 8.425e-18
5933.496 5.127e-17 8.439e-18
5935.02 4.043e-17 8.18e-18
5936.544 3.932e-17 8.04e-18
5938.069 4.972e-17 8.091e-18
5939.593 5.447e-17 8.036e-18
5941.118 5.497e-17 8.042e-18
5942.642 3.387e-17 7.779e-18
5944.166 3.965e-17 8.003e-18
5945.691 4.926e-17 8e-18
5947.215 4.391e-17 7.982e-18
5948.74 4.593e-17 8.101e-18
5950.264 4.112e-17 8.131e-18
5951.789 4.179e-17 8.102e-18
5953.314 5.372e-17 8.316e-18
5954.838 3.8e-17 8.056e-18
5956.363 3.868e-17 7.903e-18
5957.888 5.59e-17 7.987e-18
5959.413 3.753e-17 7.708e-18
5960.938 4.647e-17 7.956e-18
5962.462 4.368e-17 7.871e-18
5963.987 4.379e-17 7.728e-18
5965.511 4.464e-17 7.744e-18
5967.037 5.815e-17 8.034e-18
5968.562 3.554e-17 7.695e-18
5970.086 4.885e-17 7.953e-18
5971.612 7.189e-17 8.164e-18
5973.136 4.542e-17 7.945e-18
5974.661 6.74e-17 8.138e-18
5976.186 5.306e-17 8.108e-18
5977.711 3.69e-17 7.802e-18
5979.236 4.091e-17 7.899e-18
5980.761 4.843e-17 7.838e-18
5982.286 4.567e-17 7.807e-18
5983.811 4.202e-17 7.642e-18
5985.336 3.88e-17 7.756e-18
5986.862 4.391e-17 7.784e-18
5988.386 3.577e-17 7.678e-18
5989.912 3.402e-17 7.655e-18
5991.436 5.47e-17 7.808e-18
5992.962 2.671e-17 7.527e-18
5994.488 4.917e-17 7.822e-18
5996.012 4.799e-17 7.881e-18
5997.538 4.73e-17 7.781e-18
5999.063 4.104e-17 7.741e-18
6000.589 4.053e-17 7.771e-18
6002.114 4.691e-17 7.761e-18
6003.639 3.476e-17 7.583e-18
6005.165 4.882e-17 7.834e-18
6006.69 4.059e-17 7.635e-18
6008.215 5.008e-17 7.675e-18
6009.741 5.026e-17 7.65e-18
6011.266 3.051e-17 7.401e-18
6012.792 4.293e-17 7.547e-18
6014.317 6.205e-17 7.83e-18
6015.843 3.191e-17 7.411e-18
6017.368 4.857e-17 7.561e-18
6018.894 4.824e-17 7.604e-18
6020.42 4.496e-17 7.578e-18
6021.945 4.958e-17 7.676e-18
6023.471 5.642e-17 7.762e-18
6024.996 3.245e-17 7.416e-18
6026.522 3.217e-17 7.427e-18
6028.048 4.242e-17 7.574e-18
6029.574 5.765e-17 7.705e-18
6031.1 4.431e-17 7.568e-18
6032.625 3.825e-17 7.535e-18
6034.151 4.739e-17 7.639e-18
6035.677 3.725e-17 7.498e-18
6037.203 4.184e-17 7.492e-18
6038.729 3.454e-17 7.373e-18
6040.254 4.753e-17 7.577e-18
6041.78 5.233e-17 7.504e-18
6043.307 4.724e-17 7.553e-18
6044.832 4.721e-17 7.483e-18
6046.359 4.593e-17 7.415e-18
6047.884 5.607e-17 7.516e-18
6049.41 4.479e-17 7.438e-18
6050.936 4.56e-17 7.496e-18
6052.462 2.62e-17 7.28e-18
6053.989 3.839e-17 7.36e-18
6055.514 3.974e-17 7.342e-18
6057.041 3.935e-17 7.313e-18
6058.566 3.326e-17 7.274e-18
6060.093 3.43e-17 7.237e-18
6061.62 4.233e-17 7.364e-18
6063.145 3.988e-17 7.36e-18
6064.672 4.273e-17 7.463e-18
6066.198 4.304e-17 7.405e-18
6067.724 2.551e-17 7.085e-18
6069.251 5.367e-17 7.472e-18
6070.777 5.028e-17 7.416e-18
6072.303 3.47e-17 7.246e-18
6073.829 2.207e-17 6.988e-18
6075.356 4.564e-17 7.339e-18
6076.883 3.841e-17 7.156e-18
6078.409 4.663e-17 7.289e-18
6079.936 3.404e-17 7.121e-18
6081.461 4.181e-17 7.217e-18
6082.988 3.388e-17 7.078e-18
6084.514 3.461e-17 7.103e-18
6086.041 4.794e-17 7.322e-18
6087.568 5.864e-17 7.407e-18
6089.094 3.968e-17 7.183e-18
6090.621 5.646e-17 7.458e-18
6092.147 4.083e-17 7.185e-18
6093.674 4.685e-17 7.199e-18
6095.201 3.697e-17 7.226e-18
6096.727 4.695e-17 7.298e-18
6098.255 4.345e-17 7.342e-18
6099.781 4.612e-17 7.407e-18
6101.308 4.684e-17 7.419e-18
6102.835 3.371e-17 7.314e-18
6104.361 4.014e-17 7.39e-18
6105.888 4.158e-17 7.492e-18
6107.415 3.615e-17 7.618e-18
6108.942 4.992e-17 7.963e-18
6110.468 4.103e-17 7.935e-18
6111.996 4.58e-17 8.108e-18
6113.523 3.85e-17 7.965e-18
6115.049 3.563e-17 7.837e-18
6116.577 4.164e-17 7.893e-18
6118.103 2.304e-17 7.317e-18
6119.63 6.487e-17 7.643e-18
6121.158 3.105e-17 7.244e-18
6122.684 4.847e-17 7.399e-18
6124.212 4.007e-17 7.206e-18
6125.738 4.902e-17 7.349e-18
6127.266 4.511e-17 7.209e-18
6128.793 4.978e-17 7.302e-18
6130.32 3.804e-17 6.964e-18
6131.848 3.977e-17 7.16e-18
6133.374 4.173e-17 7.042e-18
6134.902 4.007e-17 7.137e-18
6136.429 3.274e-17 6.96e-18
6137.956 4.257e-17 7.225e-18
6139.484 4.356e-17 7.227e-18
6141.011 4.638e-17 7.347e-18
6142.538 3.752e-17 7.13e-18
6144.065 3.757e-17 7.167e-18
6145.593 3.182e-17 6.962e-18
6147.121 3.604e-17 7.031e-18
6148.647 4.218e-17 6.993e-18
6150.175 3.694e-17 7.093e-18
6151.702 4.06e-17 7.049e-18
6153.23 4.287e-17 7.07e-18
6154.758 5.331e-17 7.124e-18
6156.285 4.097e-17 7.075e-18
6157.813 4.583e-17 7.061e-18
6159.34 2.84e-17 6.911e-18
6160.868 3.935e-17 7.068e-18
6162.396 4.174e-17 6.971e-18
6163.923 2.618e-17 6.761e-18
6165.451 5.023e-17 7.014e-18
6166.978 4.826e-17 7.052e-18
6168.506 4.042e-17 6.93e-18
6170.034 3.312e-17 6.927e-18
6171.561 4.563e-17 7.037e-18
6173.089 4.42e-17 6.933e-18
6174.617 4.193e-17 6.793e-18
6176.145 4.685e-17 6.831e-18
6177.672 4.573e-17 6.854e-18
6179.2 3.408e-17 6.584e-18
6180.729 4.045e-17 6.723e-18
6182.256 4.083e-17 6.696e-18
6183.784 4.306e-17 6.772e-18
6185.311 3.909e-17 6.731e-18
6186.84 3.795e-17 6.699e-18
6188.368 5.291e-17 6.844e-18
6189.896 3.897e-17 6.736e-18
6191.424 3.643e-17 6.683e-18
6192.951 3.9e-17 6.677e-18
6194.48 4.211e-17 6.829e-18
6196.008 3.834e-17 6.68e-18
6197.536 3.781e-17 6.757e-18
6199.064 2.742e-17 6.623e-18
6200.592 5.25e-17 6.976e-18
6202.12 4.735e-17 7e-18
6203.648 5.192e-17 7.079e-18
6205.177 5.778e-17 7.049e-18
6206.705 3.933e-17 6.754e-18
6208.233 3.768e-17 6.858e-18
6209.761 4.595e-17 6.826e-18
6211.289 3.57e-17 6.785e-18
6212.818 4.488e-17 6.787e-18
6214.346 4.153e-17 6.684e-18
6215.874 4.293e-17 6.655e-18
6217.403 5.174e-17 6.933e-18
6218.931 3.314e-17 6.688e-18
6220.46 5.022e-17 6.967e-18
6221.988 3.245e-17 6.765e-18
6223.516 3.413e-17 6.725e-18
6225.045 3.395e-17 6.585e-18
6226.573 4.535e-17 6.67e-18
6228.102 4.21e-17 6.656e-18
6229.631 4.017e-17 6.717e-18
6231.159 4.468e-17 7.135e-18
6232.688 4.737e-17 7.503e-18
6234.216 4.614e-17 7.673e-18
6235.745 3.108e-17 7.568e-18
6237.273 4.346e-17 7.656e-18
6238.802 4.819e-17 7.418e-18
6240.331 3.359e-17 7.113e-18
6241.859 3.78e-17 7.149e-18
6243.388 2.965e-17 6.878e-18
6244.916 3.859e-17 6.77e-18
6246.445 3.929e-17 6.695e-18
6247.974 5.393e-17 6.821e-18
6249.503 3.268e-17 6.556e-18
6251.032 4.324e-17 6.656e-18
6252.56 4.298e-17 6.785e-18
6254.089 5.355e-17 7.305e-18
6255.619 3.155e-17 7.264e-18
6257.147 3.671e-17 7.491e-18
6258.676 4.69e-17 7.42e-18
6260.204 3.123e-17 7.023e-18
6261.734 3.114e-17 6.874e-18
6263.262 4.51e-17 7.079e-18
6264.792 3.877e-17 6.956e-18
6266.321 2.833e-17 6.746e-18
6267.849 3.05e-17 6.586e-18
6269.379 3.539e-17 6.709e-18
6270.907 4.086e-17 6.494e-18
6272.437 3.234e-17 6.566e-18
6273.966 2.955e-17 6.598e-18
6275.495 4.527e-17 7e-18
6277.024 4.199e-17 6.955e-18
6278.553 2.864e-17 6.653e-18
6280.083 3.906e-17 6.794e-18
6281.612 4.766e-17 6.762e-18
6283.141 3.052e-17 6.723e-18
6284.67 4.254e-17 7.178e-18
6286.199 5.563e-17 7.301e-18
6287.729 2.839e-17 7e-18
6289.258 4.294e-17 7.063e-18
6290.787 2.313e-17 6.588e-18
6292.317 3.623e-17 6.536e-18
6293.846 3.844e-17 6.813e-18
6295.376 2.986e-17 7.806e-18
6296.904 3.524e-17 9.649e-18
6298.434 4.342e-17 1.043e-17
6299.964 6.334e-17 1.076e-17
6301.493 2.948e-17 9.9e-18
6303.023 2.664e-17 8.701e-18
6304.552 3.659e-17 8.159e-18
6306.082 3.935e-17 7.853e-18
6307.612 3.382e-17 7.599e-18
6309.141 4.554e-17 7.214e-18
6310.671 3.269e-17 6.733e-18
6312.2 4.292e-17 6.73e-18
6313.73 4.654e-17 6.598e-18
6315.26 1.83e-17 6.279e-18
6316.789 4.325e-17 6.697e-18
6318.319 3.647e-17 6.597e-18
6319.848 4.156e-17 6.745e-18
6321.378 2.825e-17 6.512e-18
6322.907 5.189e-17 6.838e-18
6324.437 5.465e-17 6.846e-18
6325.967 4.416e-17 6.967e-18
6327.497 3.6e-17 6.997e-18
6329.027 3.173e-17 6.925e-18
6330.556 2.738e-17 6.868e-18
6332.086 4.319e-17 6.756e-18
6333.617 2.199e-17 6.291e-18
6335.146 4.079e-17 6.35e-18
6336.676 3.942e-17 6.264e-18
6338.206 3.453e-17 6.292e-18
6339.736 3.98e-17 6.387e-18
6341.266 3.462e-17 6.163e-18
6342.796 4.837e-17 6.457e-18
6344.326 3.96e-17 6.334e-18
6345.856 3.738e-17 6.366e-18
6347.386 4.314e-17 6.445e-18
6348.916 4.296e-17 6.463e-18
6350.446 3.564e-17 6.261e-18
6351.977 4.592e-17 6.535e-18
6353.506 4.772e-17 6.565e-18
6355.037 3.553e-17 6.597e-18
6356.566 5.882e-17 6.876e-18
6358.097 3.102e-17 6.707e-18
6359.628 4.391e-17 7.012e-18
6361.157 3.931e-17 7.315e-18
6362.688 3.57e-17 7.562e-18
6364.218 5.734e-17 7.677e-18
6365.748 2.947e-17 6.919e-18
6367.279 3.21e-17 6.491e-18
6368.809 3.48e-17 6.177e-18
6370.339 4.102e-17 6.268e-18
6371.869 4.327e-17 6.186e-18
6373.4 4.164e-17 6.189e-18
6374.931 3.387e-17 6.135e-18
6376.461 3.911e-17 6.276e-18
6377.991 2.935e-17 6.222e-18
6379.521 3.904e-17 6.286e-18
6381.052 3.157e-17 6.17e-18
6382.582 4.746e-17 6.431e-18
6384.113 3.82e-17 6.331e-18
6385.644 5.228e-17 6.61e-18
6387.174 4.258e-17 6.364e-18
6388.705 4.333e-17 6.31e-18
6390.235 3.913e-17 6.208e-18
6391.766 3.617e-17 6.149e-18
6393.297 3.646e-17 6.1e-18
6394.827 3.201e-17 6.08e-18
6396.358 4.71e-17 6.25e-18
6397.888 4.485e-17 6.27e-18
6399.419 4.344e-17 6.291e-18
6400.951 4.023e-17 6.216e-18
6402.481 4.741e-17 6.402e-18
6404.012 4.254e-17 6.162e-18
6405.542 4.4e-17 6.075e-18
6407.073 4.472e-17 6.11e-18
6408.604 3.259e-17 6.038e-18
6410.135 3.867e-17 6.09e-18
6411.666 2.152e-17 5.861e-18
6413.196 4.906e-17 6.279e-18
6414.728 3.848e-17 6.139e-18
6416.258 2.845e-17 6.042e-18
6417.789 3.534e-17 6.123e-18
6419.321 3.413e-17 6.23e-18
6420.851 4.352e-17 6.321e-18
6422.382 3.919e-17 6.248e-18
6423.913 4.179e-17 6.104e-18
6425.444 4.141e-17 6.145e-18
6426.976 4.656e-17 6.164e-18
6428.506 3.907e-17 5.983e-18
6430.038 2.864e-17 5.935e-18
6431.568 3.843e-17 6.042e-18
6433.1 5.047e-17 6.174e-18
6434.63 4.39e-17 6.13e-18
6436.162 4.115e-17 6.106e-18
6437.694 2.893e-17 5.87e-18
6439.224 3.48e-17 5.937e-18
6440.756 3.626e-17 5.961e-18
6442.287 4.032e-17 6.026e-18
6443.818 3.585e-17 5.972e-18
6445.35 3.889e-17 5.999e-18
6446.881 3.379e-17 5.961e-18
6448.412 4.267e-17 6.069e-18
6449.943 2.941e-17 5.978e-18
6451.475 5.18e-17 6.247e-18
6453.007 3.65e-17 6.005e-18
6454.537 3.449e-17 6.024e-18
6456.069 2.814e-17 5.888e-18
6457.6 4.158e-17 6.09e-18
6459.132 3.76e-17 6.106e-18
6460.663 3.339e-17 6.189e-18
6462.195 3.631e-17 6.46e-18
6463.727 3.041e-17 6.536e-18
6465.258 3.893e-17 6.579e-18
6466.79 2.697e-17 6.566e-18
6468.32 4.438e-17 6.666e-18
6469.852 3.502e-17 6.503e-18
6471.384 4.438e-17 6.447e-18
6472.916 3.18e-17 6.123e-18
6474.448 3.313e-17 6.099e-18
6475.979 3.592e-17 6.051e-18
6477.511 3.237e-17 5.985e-18
6479.043 3.708e-17 6.06e-18
6480.574 4.174e-17 5.97e-18
6482.106 2.804e-17 5.711e-18
6483.637 3.744e-17 5.811e-18
6485.169 4.233e-17 5.944e-18
6486.701 4.736e-17 6.031e-18
6488.233 4.186e-17 5.917e-18
6489.765 4.902e-17 5.947e-18
6491.296 4.447e-17 5.977e-18
6492.829 4.17e-17 6.058e-18
6494.36 2.191e-17 6.177e-18
6495.892 3.234e-17 6.696e-18
6497.425 4.442e-17 6.959e-18
6498.956 3.692e-17 6.845e-18
6500.488 3.951e-17 6.707e-18
6502.02 3.943e-17 6.551e-18
6503.552 3.326e-17 6.271e-18
6505.084 4.047e-17 6.244e-18
6506.616 3.627e-17 6.087e-18
6508.148 4.332e-17 6.068e-18
6509.68 3.507e-17 5.87e-18
6511.212 4.138e-17 5.939e-18
6512.744 3.306e-17 5.855e-18
6514.276 3.279e-17 5.73e-18
6515.809 3.814e-17 5.778e-18
6517.34 3.288e-17 5.78e-18
6518.873 3.906e-17 5.868e-18
6520.405 4.893e-17 6.245e-18
6521.937 3.216e-17 5.907e-18
6523.47 3.425e-17 5.994e-18
6525.002 4.093e-17 5.951e-18
6526.534 3.927e-17 5.959e-18
6528.066 3.141e-17 6.051e-18
6529.599 4.089e-17 6.404e-18
6531.131 2.738e-17 6.518e-18
6532.663 4.804e-17 6.764e-18
6534.196 3.886e-17 6.502e-18
6535.728 3.781e-17 6.148e-18
6537.26 2.351e-17 5.67e-18
6538.792 3.512e-17 5.777e-18
6540.325 3.068e-17 5.785e-18
6541.858 3.333e-17 6.019e-18
6543.39 3.374e-17 5.975e-18
6544.923 3.617e-17 5.942e-18
6546.455 4.882e-17 6.025e-18
6547.988 3.675e-17 5.781e-18
6549.521 3.169e-17 6.142e-18
6551.052 2.489e-17 6.302e-18
6552.585 2.483e-17 6.49e-18
6554.117 3.556e-17 6.518e-18
6555.65 3.134e-17 6.117e-18
6557.184 3.238e-17 5.729e-18
6558.716 3.201e-17 5.709e-18
6560.249 3.968e-17 5.91e-18
6561.781 4.53e-17 6.008e-18
6563.314 3.556e-17 5.877e-18
6564.846 5.111e-17 5.917e-18
6566.379 5.281e-17 5.977e-18
6567.912 4.402e-17 5.82e-18
6569.444 5.459e-17 5.917e-18
6570.978 5.265e-17 5.925e-18
6572.51 3.879e-17 5.706e-18
6574.043 4.25e-17 6.028e-18
6575.576 3.226e-17 6.131e-18
6577.109 2.51e-17 5.938e-18
6578.642 2.776e-17 5.81e-18
6580.174 3.842e-17 5.597e-18
6581.708 3.834e-17 5.463e-18
6583.241 3.395e-17 5.259e-18
6584.773 2.412e-17 5.229e-18
6586.307 3.888e-17 5.381e-18
6587.839 3.359e-17 5.288e-18
6589.372 3.804e-17 5.378e-18
6590.905 4.521e-17 5.441e-18
6592.438 3.744e-17 5.411e-18
6593.972 3.337e-17 5.359e-18
6595.504 3.285e-17 5.438e-18
6597.038 2.646e-17 5.288e-18
6598.57 2.97e-17 5.349e-18
6600.104 3.501e-17 5.448e-18
6601.637 3.415e-17 5.609e-18
6603.17 3.27e-17 5.55e-18
6604.704 4.198e-17 5.637e-18
6606.236 3.456e-17 5.367e-18
6607.77 3.465e-17 5.291e-18
6609.303 3.7e-17 5.314e-18
6610.836 3.413e-17 5.189e-18
6612.37 3.451e-17 5.219e-18
6613.902 3.134e-17 5.264e-18
6615.436 4.135e-17 5.37e-18
6616.969 2.562e-17 5.214e-18
6618.503 3.35e-17 5.306e-18
6620.036 4.594e-17 5.447e-18
6621.569 2.738e-17 5.145e-18
6623.103 3.411e-17 5.32e-18
6624.636 3.785e-17 5.28e-18
6626.17 3.516e-17 5.315e-18
6627.704 4.105e-17 5.41e-18
6629.236 3.705e-17 5.322e-18
6630.77 3.296e-17 5.362e-18
6632.303 3.033e-17 5.352e-18
6633.837 3.022e-17 5.323e-18
6635.371 2.705e-17 5.222e-18
6636.904 4.6e-17 5.404e-18
6638.438 3.944e-17 5.3e-18
6639.971 2.724e-17 5.114e-18
6641.505 4.012e-17 5.206e-18
6643.038 2.368e-17 5.03e-18
6644.572 3.697e-17 5.138e-18
6646.106 3.966e-17 5.198e-18
6647.639 3.163e-17 5.206e-18
6649.173 4.037e-17 5.235e-18
6650.706 3.084e-17 5.143e-18
6652.241 4.625e-17 5.325e-18
6653.775 2.43e-17 5.187e-18
6655.308 2.748e-17 5.113e-18
6656.842 3.269e-17 5.184e-18
6658.375 3.301e-17 5.18e-18
6659.91 3.574e-17 5.322e-18
6661.444 2.485e-17 5.109e-18
6662.977 3.536e-17 5.315e-18
6664.511 3.412e-17 5.285e-18
6666.045 3.533e-17 5.291e-18
6667.579 2.595e-17 5.158e-18
6669.112 3.812e-17 5.263e-18
6670.647 3.638e-17 5.243e-18
6672.181 2.881e-17 5.133e-18
6673.714 3.359e-17 5.18e-18
6675.249 3.761e-17 5.26e-18
6676.782 4.516e-17 5.396e-18
6678.317 3.348e-17 5.169e-18
6679.851 3.713e-17 5.21e-18
6681.384 3.396e-17 5.299e-18
6682.919 3.548e-17 5.187e-18
6684.452 3.299e-17 5.183e-18
6685.987 2.948e-17 5.248e-18
6687.52 2.722e-17 5.155e-18
6689.055 2.989e-17 5.228e-18
6690.59 3.26e-17 5.192e-18
6692.123 4.128e-17 5.294e-18
6693.658 4.172e-17 5.318e-18
6695.191 3.756e-17 5.262e-18
6696.726 3.156e-17 5.267e-18
6698.261 2.849e-17 5.269e-18
6699.794 3.56e-17 5.335e-18
6701.329 3.541e-17 5.455e-18
6702.863 3.169e-17 5.328e-18
6704.397 3.739e-17 5.506e-18
6705.932 4.845e-17 5.586e-18
6707.466 2.521e-17 5.248e-18
6709.001 3.983e-17 5.43e-18
6710.534 3.733e-17 5.406e-18
6712.069 2.98e-17 5.203e-18
6713.603 3.8e-17 5.359e-18
6715.138 1.858e-17 5.08e-18
6716.673 3.395e-17 5.223e-18
6718.207 3.757e-17 5.228e-18
6719.742 4.146e-17 5.337e-18
6721.275 3.389e-17 5.175e-18
6722.81 3.536e-17 5.217e-18
6724.345 3.933e-17 5.273e-18
6725.879 3.523e-17 5.099e-18
6727.414 4.003e-17 5.194e-18
6728.948 2.993e-17 5.179e-18
6730.483 3.372e-17 5.197e-18
6732.018 2.989e-17 5.058e-18
6733.552 3.286e-17 5.086e-18
6735.087 4.212e-17 5.244e-18
6736.621 3.972e-17 5.179e-18
6738.156 3.241e-17 5.048e-18
6739.691 4.023e-17 5.251e-18
6741.226 3.799e-17 5.201e-18
6742.761 2.993e-17 5.071e-18
6744.295 3.946e-17 5.189e-18
6745.83 3.37e-17 5.095e-18
6747.364 3.533e-17 5.17e-18
6748.9 3.426e-17 5.061e-18
6750.435 3.186e-17 5.091e-18
6751.969 2.545e-17 4.921e-18
6753.504 4.062e-17 5.205e-18
6755.039 2.487e-17 5.001e-18
6756.574 3.47e-17 5.063e-18
6758.108 2.625e-17 5.034e-18
6759.643 3.458e-17 4.989e-18
6761.179 3.649e-17 5.018e-18
6762.713 2.804e-17 4.965e-18
6764.248 3.44e-17 5.022e-18
6765.783 2.812e-17 4.872e-18
6767.318 3.401e-17 4.973e-18
6768.854 2.725e-17 4.857e-18
6770.388 3.544e-17 4.958e-18
6771.924 2.604e-17 4.813e-18
6773.458 3.201e-17 4.868e-18
6774.994 2.167e-17 4.788e-18
6776.529 3.086e-17 4.923e-18
6778.064 3.796e-17 4.952e-18
6779.599 3.191e-17 4.803e-18
6781.134 2.7e-17 4.743e-18
6782.669 2.962e-17 4.899e-18
6784.204 2.869e-17 4.916e-18
6785.739 3.37e-17 4.876e-18
6787.275 3.39e-17 4.954e-18
6788.81 3.872e-17 4.971e-18
6790.345 2.983e-17 4.845e-18
6791.88 3.03e-17 4.777e-18
6793.416 3.105e-17 4.807e-18
6794.951 4.137e-17 5.006e-18
6796.486 3.565e-17 4.882e-18
6798.022 3.107e-17 4.749e-18
6799.557 2.909e-17 4.747e-18
6801.092 2.782e-17 4.764e-18
6802.628 3.774e-17 4.901e-18
6804.163 2.303e-17 4.699e-18
6805.699 3.623e-17 4.834e-18
6807.234 3.581e-17 4.771e-18
6808.769 2.986e-17 4.771e-18
6810.304 3.826e-17 4.783e-18
6811.84 3.48e-17 4.773e-18
6813.376 2.977e-17 4.621e-18
6814.911 4.027e-17 4.867e-18
6816.447 3.035e-17 4.73e-18
6817.982 2.823e-17 4.649e-18
6819.518 2.89e-17 4.665e-18
6821.054 4.572e-17 4.901e-18
6822.589 2.34e-17 4.745e-18
6824.125 2.348e-17 5.178e-18
6825.66 4.737e-17 5.993e-18
6827.196 2.287e-17 6.036e-18
6828.731 4.172e-17 6.389e-18
6830.267 4.283e-17 6.591e-18
6831.803 4.313e-17 6.434e-18
6833.338 3.693e-17 6.127e-18
6834.874 2.16e-17 5.69e-18
6836.409 2.754e-17 5.352e-18
6837.945 2.722e-17 5.021e-18
6839.482 3.609e-17 5.181e-18
6841.017 2.843e-17 5.072e-18
6842.553 3.192e-17 4.943e-18
6844.088 2.159e-17 4.693e-18
6845.624 3.078e-17 4.714e-18
6847.161 3.395e-17 4.805e-18
6848.696 3.302e-17 4.733e-18
6850.232 3.65e-17 4.811e-18
6851.768 2.553e-17 4.649e-18
6853.304 3.849e-17 4.802e-18
6854.839 3.227e-17 4.731e-18
6856.376 3.551e-17 4.71e-18
6857.912 3.926e-17 5.009e-18
6859.447 3.696e-17 5.88e-18
6860.984 2.468e-17 6.495e-18
6862.519 2.59e-17 7.048e-18
6864.055 4.338e-17 7.716e-18
6865.592 2.005e-17 7.624e-18
6867.127 3.204e-17 7.271e-18
6868.664 3.35e-17 7.21e-18
6870.199 3.796e-17 6.98e-18
6871.736 2.171e-17 6.497e-18
6873.272 3.127e-17 6.215e-18
6874.808 3.844e-17 5.95e-18
6876.344 2.897e-17 5.688e-18
6877.88 3.116e-17 5.569e-18
6879.417 3e-17 5.447e-18
6880.952 3.208e-17 5.417e-18
6882.489 3.464e-17 5.463e-18
6884.025 4.664e-17 5.714e-18
6885.561 3.577e-17 5.847e-18
6887.098 4.234e-17 6.158e-18
6888.633 3.235e-17 6.012e-18
6890.17 3.551e-17 5.889e-18
6891.707 2.343e-17 5.603e-18
6893.242 2.764e-17 5.425e-18
6894.779 2.693e-17 5.339e-18
6896.315 1.989e-17 5.477e-18
6897.852 3.314e-17 5.792e-18
6899.387 2.988e-17 5.815e-18
6900.924 2.423e-17 5.654e-18
6902.461 2.999e-17 5.619e-18
6903.997 2.903e-17 5.297e-18
6905.534 3.546e-17 5.237e-18
6907.07 3.074e-17 5.265e-18
6908.606 3.799e-17 5.607e-18
6910.143 4.473e-17 5.952e-18
6911.679 3.54e-17 5.889e-18
6913.216 3.177e-17 5.761e-18
6914.752 3.402e-17 5.556e-18
6916.289 3.086e-17 5.209e-18
6917.826 3.768e-17 5.385e-18
6919.362 3.103e-17 5.897e-18
6920.899 3.637e-17 6.307e-18
6922.435 1.798e-17 6.365e-18
6923.972 4.228e-17 6.3e-18
6925.508 3.09e-17 5.625e-18
6927.045 3.263e-17 5.252e-18
6928.582 3.361e-17 5.007e-18
6930.118 3.457e-17 4.91e-18
6931.655 2.739e-17 4.912e-18
6933.191 3.466e-17 4.98e-18
6934.729 2.445e-17 5.129e-18
6936.266 2.895e-17 5.377e-18
6937.802 2.467e-17 5.509e-18
6939.339 2.677e-17 5.59e-18
6940.875 4.544e-17 5.595e-18
6942.413 3.012e-17 5.212e-18
6943.949 3.392e-17 5.448e-18
6945.486 2.853e-17 5.998e-18
6947.023 4.219e-17 6.463e-18
6948.56 4.268e-17 6.586e-18
6950.097 2.985e-17 6.166e-18
6951.633 3.144e-17 5.656e-18
6953.17 3.385e-17 5.22e-18
6954.708 3.936e-17 5.117e-18
6956.244 3.214e-17 4.953e-18
6957.781 2.634e-17 4.905e-18
6959.318 3.791e-17 4.999e-18
6960.855 3.065e-17 4.943e-18
6962.393 3.491e-17 4.955e-18
6963.929 2.811e-17 4.871e-18
6965.466 3.44e-17 5.133e-18
6967.003 3.323e-17 5.355e-18
6968.54 4.241e-17 5.509e-18
6970.077 4.084e-17 5.508e-18
6971.614 2.735e-17 5.16e-18
6973.152 3.35e-17 5.33e-18
6974.688 2.756e-17 5.513e-18
6976.226 4.556e-17 5.98e-18
6977.763 3.039e-17 5.869e-18
6979.3 2.802e-17 5.612e-18
6980.838 3.051e-17 5.319e-18
6982.374 3.229e-17 5.053e-18
6983.912 3.388e-17 5e-18
6985.449 3.79e-17 4.992e-18
6986.986 2.555e-17 4.909e-18
6988.523 3.86e-17 4.937e-18
6990.061 2.433e-17 4.918e-18
6991.598 3.579e-17 4.925e-18
6993.135 2.709e-17 4.801e-18
6994.673 3.556e-17 4.972e-18
6996.209 3.503e-17 4.89e-18
6997.747 2.673e-17 4.949e-18
6999.285 2.407e-17 4.905e-18
7000.822 2.735e-17 5.022e-18
7002.359 3.44e-17 5.173e-18
7003.896 4.015e-17 5.218e-18
7005.434 3.488e-17 5.095e-18
7006.972 3.016e-17 5.206e-18
7008.509 2.219e-17 5.123e-18
7010.047 2.588e-17 5.229e-18
7011.584 3.893e-17 5.298e-18
7013.121 3.908e-17 5.287e-18
7014.658 3.133e-17 4.956e-18
7016.196 3.304e-17 4.839e-18
7017.734 3.805e-17 4.839e-18
7019.271 3.304e-17 4.819e-18
7020.809 3.144e-17 4.71e-18
7022.346 2.932e-17 4.735e-18
7023.884 3.25e-17 4.839e-18
7025.422 1.713e-17 4.591e-18
7026.959 2.393e-17 4.704e-18
7028.497 3.578e-17 4.894e-18
7030.034 2.895e-17 4.763e-18
7031.572 3.538e-17 4.93e-18
7033.109 2.893e-17 4.719e-18
7034.648 3.261e-17 4.66e-18
7036.186 3.109e-17 4.678e-18
7037.723 2.905e-17 4.75e-18
7039.261 2.993e-17 4.714e-18
7040.798 2.378e-17 4.673e-18
7042.336 2.811e-17 4.765e-18
7043.874 3.33e-17 4.919e-18
7045.412 1.657e-17 4.747e-18
7046.95 3.301e-17 5.14e-18
7048.487 3.85e-17 5.186e-18
7050.025 2.726e-17 4.983e-18
7051.563 2.597e-17 4.893e-18
7053.101 2.827e-17 4.792e-18
7054.639 2.951e-17 4.831e-18
7056.176 2.744e-17 4.654e-18
7057.715 2.582e-17 4.687e-18
7059.252 3.257e-17 4.792e-18
7060.79 2.436e-17 4.648e-18
7062.329 3.009e-17 4.853e-18
7063.866 2.571e-17 4.794e-18
7065.405 1.95e-17 4.623e-18
7066.942 2.57e-17 4.703e-18
7068.48 2.933e-17 4.727e-18
7070.019 2.343e-17 4.746e-18
7071.556 3.467e-17 4.75e-18
7073.095 3.368e-17 4.688e-18
7074.632 2.842e-17 4.589e-18
7076.171 3.68e-17 4.826e-18
7077.708 3.26e-17 4.724e-18
7079.247 3.955e-17 4.85e-18
7080.785 2.661e-17 4.621e-18
7082.323 3.808e-17 4.778e-18
7083.861 3.675e-17 4.724e-18
7085.399 2.24e-17 4.604e-18
7086.938 3.644e-17 4.879e-18
7088.476 2.504e-17 4.576e-18
7090.014 3.673e-17 4.722e-18
7091.552 3.09e-17 4.563e-18
7093.09 2.487e-17 4.477e-18
7094.629 2.324e-17 4.437e-18
7096.166 3.984e-17 4.667e-18
7097.705 3.397e-17 4.542e-18
7099.244 2.667e-17 4.495e-18
7100.782 3.303e-17 4.521e-18
7102.32 2.82e-17 4.431e-18
7103.858 3.32e-17 4.514e-18
7105.397 2.658e-17 4.42e-18
7106.936 3.944e-17 4.553e-18
7108.473 2.89e-17 4.51e-18
7110.012 3.189e-17 4.501e-18
7111.55 1.844e-17 4.276e-18
7113.089 2.656e-17 4.368e-18
7114.628 2.676e-17 4.355e-18
7116.165 2.923e-17 4.468e-18
7117.704 3.116e-17 4.454e-18
7119.242 2.24e-17 4.348e-18
7120.781 3.358e-17 4.546e-18
7122.319 2.748e-17 4.471e-18
7123.858 3.102e-17 4.523e-18
7125.397 2.761e-17 4.493e-18
7126.935 2.942e-17 4.521e-18
7128.474 2.617e-17 4.48e-18
7130.012 3.896e-17 4.695e-18
7131.551 3.525e-17 4.6e-18
7133.09 2.45e-17 4.396e-18
7134.628 3.127e-17 4.469e-18
7136.167 3.248e-17 4.402e-18
7137.705 2.594e-17 4.396e-18
7139.244 2.652e-17 4.508e-18
7140.782 3.141e-17 4.597e-18
7142.321 4.157e-17 4.768e-18
7143.86 2.884e-17 4.588e-18
7145.398 2.662e-17 4.598e-18
7146.938 2.811e-17 4.524e-18
7148.476 2.419e-17 4.411e-18
7150.015 3.043e-17 4.469e-18
7151.554 1.964e-17 4.358e-18
7153.092 2.529e-17 4.342e-18
7154.631 3.242e-17 4.557e-18
7156.17 2.484e-17 4.354e-18
7157.709 3.164e-17 4.5e-18
7159.247 3.119e-17 4.539e-18
7160.786 3.205e-17 4.476e-18
7162.326 2.574e-17 4.464e-18
7163.864 3.16e-17 4.547e-18
7165.403 3.576e-17 4.563e-18
7166.941 2.919e-17 4.706e-18
7168.481 2.75e-17 4.526e-18
7170.02 3.145e-17 4.754e-18
7171.559 3.377e-17 4.818e-18
7173.098 2.846e-17 4.709e-18
7174.636 2.685e-17 4.757e-18
7176.176 2.912e-17 4.593e-18
7177.715 2.198e-17 4.714e-18
7179.253 3.084e-17 4.678e-18
7180.793 1.562e-17 4.647e-18
7182.331 2.775e-17 4.791e-18
7183.871 3.002e-17 4.934e-18
7185.409 2.66e-17 4.75e-18
7186.949 3.808e-17 4.902e-18
7188.488 3.131e-17 4.813e-18
7190.027 2.35e-17 4.582e-18
7191.566 2.938e-17 4.664e-18
7193.105 2.872e-17 4.694e-18
7194.644 2.502e-17 4.502e-18
7196.184 2.711e-17 4.595e-18
7197.723 2.722e-17 4.785e-18
7199.262 2.748e-17 4.767e-18
7200.801 2.316e-17 4.676e-18
7202.34 2.831e-17 4.794e-18
7203.879 3.152e-17 4.801e-18
7205.419 2.447e-17 4.556e-18
7206.958 3.346e-17 4.627e-18
7208.497 2.875e-17 4.624e-18
7210.037 2.957e-17 4.525e-18
7211.575 2.807e-17 4.466e-18
7213.115 4.592e-17 4.72e-18
7214.655 2.876e-17 4.419e-18
7216.194 2.873e-17 4.408e-18
7217.733 3.049e-17 4.566e-18
7219.272 2.534e-17 4.427e-18
7220.812 3.127e-17 4.561e-18
7222.351 2.699e-17 4.574e-18
7223.89 2.226e-17 4.521e-18
7225.43 2.977e-17 4.615e-18
7226.969 2.607e-17 4.534e-18
7228.509 3.287e-17 4.78e-18
7230.048 2.651e-17 4.812e-18
7231.588 3.447e-17 5.056e-18
7233.128 3.116e-17 5.045e-18
7234.666 3.564e-17 5.804e-18
7236.206 2.595e-17 7.022e-18
7237.745 3.621e-17 7.732e-18
7239.285 2.59e-17 8.295e-18
7240.824 1.323e-17 8.74e-18
7242.364 2.868e-17 8.615e-18
7243.904 1.558e-17 8.038e-18
7245.443 1.976e-17 7.594e-18
7246.983 2.758e-17 6.502e-18
7248.522 3.322e-17 5.925e-18
7250.062 2.413e-17 5.655e-18
7251.602 2.715e-17 5.703e-18
7253.141 4.347e-17 5.797e-18
7254.681 2.424e-17 5.323e-18
7256.22 2.596e-17 5.117e-18
7257.76 2.869e-17 4.849e-18
7259.301 2.412e-17 4.677e-18
7260.84 3.055e-17 4.87e-18
7262.38 3.038e-17 4.908e-18
7263.919 2.69e-17 4.912e-18
7265.459 2.222e-17 4.888e-18
7266.998 2.726e-17 4.854e-18
7268.538 2.775e-17 4.969e-18
7270.079 2.136e-17 5.109e-18
7271.618 2.301e-17 6.739e-18
7273.158 2.562e-17 8.396e-18
7274.697 1.634e-17 8.924e-18
7276.238 4.421e-17 8.979e-18
7277.778 1.658e-17 7.797e-18
7279.317 2.572e-17 6.617e-18
7280.857 2.499e-17 6.49e-18
7282.397 1.767e-17 6.348e-18
7283.937 3.114e-17 6.428e-18
7285.476 3.281e-17 6.19e-18
7287.017 2.619e-17 5.533e-18
7288.557 2.931e-17 5.2e-18
7290.096 3.42e-17 5.105e-18
7291.637 2.086e-17 5.033e-18
7293.176 1.798e-17 5.157e-18
7294.716 3.436e-17 5.342e-18
7296.257 3.271e-17 5.241e-18
7297.796 3.196e-17 5.142e-18
7299.337 2.117e-17 5.145e-18
7300.876 2.864e-17 5.676e-18
7302.417 1.756e-17 5.722e-18
7303.956 3.851e-17 5.894e-18
7305.497 2.312e-17 5.324e-18
7307.037 3.238e-17 5.219e-18
7308.577 3.118e-17 5.092e-18
7310.117 2.637e-17 5.085e-18
7311.657 2.748e-17 6.232e-18
7313.197 3.293e-17 7.553e-18
7314.738 2.72e-17 7.869e-18
7316.277 4.319e-17 8.142e-18
7317.818 2.871e-17 6.922e-18
7319.358 3.894e-17 5.722e-18
7320.898 1.625e-17 4.768e-18
7322.438 2.32e-17 4.595e-18
7323.978 2.587e-17 4.868e-18
7325.519 3.368e-17 5.712e-18
7327.059 1.879e-17 5.814e-18
7328.599 2.733e-17 6.025e-18
7330.139 2.515e-17 5.741e-18
7331.68 2.771e-17 5.216e-18
7333.22 3.648e-17 4.863e-18
7334.76 3.496e-17 4.982e-18
7336.301 1.94e-17 6.088e-18
7337.841 2.307e-17 7.528e-18
7339.381 2.1e-17 8.009e-18
7340.922 1.67e-17 7.786e-18
7342.462 1.93e-17 6.897e-18
7344.003 2.975e-17 5.8e-18
7345.543 2.627e-17 4.943e-18
7347.083 2.527e-17 4.556e-18
7348.623 2.173e-17 4.504e-18
7350.164 1.582e-17 4.336e-18
7351.705 2.558e-17 4.516e-18
7353.245 2.658e-17 4.724e-18
7354.786 2.906e-17 5.289e-18
7356.326 2.906e-17 5.681e-18
7357.867 2.579e-17 5.776e-18
7359.407 3.058e-17 5.541e-18
7360.947 1.307e-17 4.958e-18
7362.488 2.983e-17 4.768e-18
7364.028 2.482e-17 5.059e-18
7365.569 1.783e-17 6.186e-18
7367.109 2.511e-17 6.912e-18
7368.65 2.413e-17 7.127e-18
7370.191 1.919e-17 6.577e-18
7371.731 2.51e-17 5.786e-18
7373.272 2.677e-17 4.92e-18
7374.812 2.415e-17 4.488e-18
7376.353 2.813e-17 4.342e-18
7377.894 2.735e-17 4.294e-18
7379.434 2.667e-17 4.274e-18
7380.976 3.246e-17 4.332e-18
7382.516 2.288e-17 4.284e-18
7384.057 2.932e-17 4.318e-18
7385.597 2.446e-17 4.283e-18
7387.138 2.441e-17 4.452e-18
7388.679 2.972e-17 4.973e-18
7390.219 2.053e-17 5.051e-18
7391.761 3.514e-17 5.338e-18
7393.301 2.211e-17 4.999e-18
7394.842 2.238e-17 4.612e-18
7396.383 2.968e-17 4.807e-18
7397.923 2.199e-17 5.441e-18
7399.465 2.338e-17 5.805e-18
7401.005 3.337e-17 6.18e-18
7402.546 3.478e-17 5.892e-18
7404.086 2.76e-17 5.255e-18
7405.628 2.618e-17 4.596e-18
7407.169 3.54e-17 4.481e-18
7408.709 2.911e-17 4.25e-18
7410.25 3.29e-17 4.368e-18
7411.791 2.354e-17 4.208e-18
7413.332 3.397e-17 4.371e-18
7414.874 2.043e-17 4.163e-18
7416.414 2.764e-17 4.249e-18
7417.955 2.883e-17 4.258e-18
7419.496 3.104e-17 4.213e-18
7421.037 1.989e-17 4.037e-18
7422.577 2.687e-17 4.164e-18
7424.119 2.265e-17 4.214e-18
7425.66 2.298e-17 4.357e-18
7427.201 2.167e-17 4.58e-18
7428.742 2.351e-17 4.639e-18
7430.283 2.982e-17 4.638e-18
7431.824 2.02e-17 4.403e-18
7433.366 2.669e-17 4.538e-18
7434.906 2.817e-17 4.885e-18
7436.448 2.886e-17 5.11e-18
7437.988 2.292e-17 5.139e-18
7439.53 1.984e-17 4.963e-18
7441.071 3.384e-17 4.704e-18
7442.612 2.186e-17 4.297e-18
7444.153 2.126e-17 4.138e-18
7445.694 2.806e-17 4.159e-18
7447.236 2.459e-17 4.102e-18
7448.776 2.98e-17 4.218e-18
7450.318 2.443e-17 4.182e-18
7451.859 3.198e-17 4.229e-18
7453.4 2.663e-17 4.169e-18
7454.942 3.271e-17 4.273e-18
7456.482 2.371e-17 4.158e-18
7458.024 2.306e-17 4.254e-18
7459.566 2.37e-17 4.435e-18
7461.106 2.784e-17 4.533e-18
7462.648 2.565e-17 4.647e-18
7464.189 2.061e-17 4.712e-18
7465.731 2.572e-17 4.756e-18
7467.271 3.395e-17 4.959e-18
7468.813 2.679e-17 5.119e-18
7470.355 2.943e-17 5.319e-18
7471.896 2.839e-17 5.356e-18
7473.437 2.86e-17 5.361e-18
7474.978 3.223e-17 5.335e-18
7476.52 2.943e-17 5.289e-18
7478.062 2.96e-17 5.419e-18
7479.603 2.798e-17 5.651e-18
7481.144 3.11e-17 5.735e-18
7482.685 2.494e-17 5.579e-18
7484.227 2.712e-17 5.352e-18
7485.768 2.004e-17 4.828e-18
7487.31 2.712e-17 4.618e-18
7488.852 2.042e-17 4.469e-18
7490.393 2.233e-17 4.599e-18
7491.935 2.904e-17 4.772e-18
7493.476 2.076e-17 4.686e-18
7495.018 3.551e-17 4.696e-18
7496.56 2.298e-17 4.451e-18
7498.1 2.498e-17 4.433e-18
7499.642 2.515e-17 4.436e-18
7501.183 2.213e-17 4.423e-18
7502.725 2.163e-17 4.392e-18
7504.266 2.425e-17 4.303e-18
7505.808 2.793e-17 4.39e-18
7507.351 3.053e-17 4.433e-18
7508.892 2.731e-17 4.363e-18
7510.434 2.218e-17 4.374e-18
7511.975 2.783e-17 4.447e-18
7513.517 2.815e-17 4.546e-18
7515.059 2.981e-17 4.662e-18
7516.6 3.384e-17 4.807e-18
7518.142 2.493e-17 5.072e-18
7519.683 2.264e-17 6.083e-18
7521.225 3.144e-17 7.014e-18
7522.766 2.227e-17 7.221e-18
7524.309 1.554e-17 6.991e-18
7525.851 4.227e-17 6.721e-18
7527.392 2.988e-17 6.026e-18
7528.934 2.632e-17 5.645e-18
7530.475 2.39e-17 5.467e-18
7532.018 2.158e-17 5.198e-18
7533.56 2.97e-17 4.967e-18
7535.101 2.956e-17 4.736e-18
7536.643 1.991e-17 4.667e-18
7538.185 2.714e-17 4.766e-18
7539.727 3.042e-17 4.921e-18
7541.268 2.545e-17 4.785e-18
7542.81 2.639e-17 4.712e-18
7544.353 3.184e-17 4.728e-18
7545.894 1.85e-17 4.437e-18
7547.436 2.898e-17 4.624e-18
7548.978 1.964e-17 4.547e-18
7550.52 2.911e-17 4.651e-18
7552.062 1.72e-17 4.711e-18
7553.604 2.582e-17 4.973e-18
7555.146 1.615e-17 5.026e-18
7556.687 2.765e-17 5.277e-18
7558.23 2.984e-17 5.288e-18
7559.771 3.128e-17 5.017e-18
7561.314 1.706e-17 4.704e-18
7562.856 2.801e-17 4.686e-18
7564.397 2.96e-17 4.863e-18
7565.94 2.751e-17 5.213e-18
7567.481 3.577e-17 6.108e-18
7569.024 2.608e-17 6.679e-18
7570.566 3.07e-17 6.802e-18
7572.108 3.486e-17 6.929e-18
7573.65 1.919e-17 6.113e-18
7575.192 2.818e-17 5.523e-18
7576.734 3.21e-17 5.08e-18
7578.276 1.786e-17 4.691e-18
7579.818 2.283e-17 4.781e-18
7581.361 2.84e-17 5.093e-18
7582.903 3.03e-17 5.46e-18
7584.445 3.116e-17 5.692e-18
7585.987 2.879e-17 5.612e-18
7587.529 4.3e-17 5.561e-18
7589.072 1.059e-17 5.118e-18
7590.613 2.056e-17 5.339e-18
7592.156 2.284e-17 6.12e-18
7593.698 2.898e-17 7.562e-18
7595.24 3.11e-17 9.888e-18
7596.782 3.724e-17 1.278e-17
7598.325 7.168e-18 1.442e-17
7599.867 -1.188e-17 1.646e-17
7601.409 2.554e-17 1.698e-17
7602.952 -1.551e-18 1.667e-17
7604.493 -7.748e-18 1.638e-17
7606.036 4.747e-17 1.68e-17
7607.579 1.162e-17 1.465e-17
7609.121 6.13e-17 1.354e-17
7610.663 1.092e-16 1.239e-17
7612.205 1.3e-16 1.12e-17
7613.748 3.157e-17 8.391e-18
7615.29 2.168e-17 7.374e-18
7616.833 1.37e-17 6.896e-18
7618.375 3.478e-17 7.207e-18
7619.917 2.256e-17 7.306e-18
7621.46 1.646e-17 7.528e-18
7623.002 2.799e-17 8.299e-18
7624.545 1.732e-17 9.142e-18
7626.087 3.224e-17 9.994e-18
7627.629 9.71e-18 1.041e-17
7629.172 2.455e-17 1.029e-17
7630.714 3.087e-17 9.656e-18
7632.257 2.91e-17 8.974e-18
7633.8 2.574e-17 8.205e-18
7635.342 2.057e-17 7.927e-18
7636.885 2.288e-17 7.802e-18
7638.427 1.573e-17 7.312e-18
7639.97 1.868e-17 7.275e-18
7641.512 1.701e-17 6.986e-18
7643.055 1.397e-17 6.675e-18
7644.598 3.656e-17 7.01e-18
7646.14 2.68e-17 6.63e-18
7647.683 1.954e-17 6.425e-18
7649.225 4.165e-17 6.69e-18
7650.768 3.066e-17 6.516e-18
7652.311 2.29e-17 6.405e-18
7653.853 2.876e-17 6.252e-18
7655.396 1.939e-17 5.856e-18
7656.938 1.141e-17 5.76e-18
7658.481 2.798e-17 6.094e-18
7660.023 4.647e-17 6.454e-18
7661.566 3.591e-17 6.434e-18
7663.109 1.718e-17 6.124e-18
7664.651 1.878e-17 5.592e-18
7666.194 2.403e-17 5.4e-18
7667.736 2.21e-17 5.24e-18
7669.279 2.541e-17 5.047e-18
7670.823 2.806e-17 4.966e-18
7672.365 2.077e-17 4.913e-18
7673.908 2.977e-17 5.067e-18
7675.45 2.793e-17 4.925e-18
7676.993 1.962e-17 4.736e-18
7678.536 2.849e-17 4.854e-18
7680.079 3.12e-17 4.925e-18
7681.622 2.953e-17 4.927e-18
7683.164 2.555e-17 4.949e-18
7684.707 2.186e-17 4.874e-18
7686.25 2.057e-17 4.961e-18
7687.793 3.241e-17 5.1e-18
7689.336 3.281e-17 5.106e-18
7690.878 2.372e-17 4.95e-18
7692.422 2.367e-17 4.952e-18
7693.964 3.174e-17 5.092e-18
7695.507 1.699e-17 5.068e-18
7697.05 3.528e-17 5.402e-18
7698.593 3.45e-17 5.309e-18
7700.136 2.098e-17 5.182e-18
7701.679 3.09e-17 5.033e-18
7703.222 3.019e-17 4.844e-18
7704.764 2.705e-17 4.754e-18
7706.308 2.148e-17 4.969e-18
7707.851 2.075e-17 6.083e-18
7709.393 2.531e-17 7.317e-18
7710.937 2.472e-17 8.216e-18
7712.479 3.572e-17 9.374e-18
7714.023 3.227e-17 9.508e-18
7715.565 8.336e-18 8.955e-18
7717.109 1.674e-17 8.44e-18
7718.652 2.665e-17 7.465e-18
7720.194 1.774e-17 6.249e-18
7721.738 2.182e-17 5.986e-18
7723.28 2.043e-17 5.955e-18
7724.824 2.015e-17 5.779e-18
7726.367 3.468e-17 5.827e-18
7727.91 2.293e-17 5.271e-18
7729.453 2.182e-17 5.026e-18
7730.996 2.512e-17 4.884e-18
7732.539 3.167e-17 5.023e-18
7734.082 1.522e-17 4.778e-18
7735.625 3.245e-17 5.023e-18
7737.169 2.658e-17 4.908e-18
7738.712 2.392e-17 4.754e-18
7740.255 1.586e-17 4.646e-18
7741.798 2.604e-17 4.686e-18
7743.341 1.863e-17 4.74e-18
7744.885 2.959e-17 5.761e-18
7746.428 3.95e-17 7.645e-18
7747.971 1.71e-17 8.483e-18
7749.514 1.407e-17 8.992e-18
7751.057 1.875e-17 8.614e-18
7752.6 2.247e-17 7.451e-18
7754.144 2.297e-17 6.234e-18
7755.687 2.43e-17 5.992e-18
7757.23 3.187e-17 6.258e-18
7758.774 1.499e-17 6.338e-18
7760.317 2.204e-17 6.174e-18
7761.86 2.233e-17 5.63e-18
7763.404 2.852e-17 5.078e-18
7764.947 1.984e-17 4.577e-18
7766.49 2.994e-17 4.59e-18
7768.033 2.057e-17 4.647e-18
7769.577 2.696e-17 5.01e-18
7771.12 2.992e-17 5.214e-18
7772.663 3.925e-17 5.356e-18
7774.207 2.582e-17 5.235e-18
7775.75 2.654e-17 5.364e-18
7777.294 3.162e-17 5.662e-18
7778.837 1.882e-17 5.655e-18
7780.38 1.978e-17 5.66e-18
7781.924 2.279e-17 5.457e-18
7783.467 2.779e-17 5.058e-18
7785.011 1.939e-17 4.768e-18
7786.554 2.704e-17 4.809e-18
7788.098 2.683e-17 5.326e-18
7789.641 3.632e-17 6.72e-18
7791.184 1.752e-17 7.657e-18
7792.728 1.512e-17 8.164e-18
7794.271 2.727e-17 8.103e-18
7795.815 3.475e-17 7.205e-18
7797.358 3.153e-17 6.003e-18
7798.902 3.078e-17 5.096e-18
7800.446 2.309e-17 4.689e-18
7801.989 2.524e-17 4.697e-18
7803.533 2.791e-17 5.2e-18
7805.076 2.583e-17 5.868e-18
7806.62 1.54e-17 6.205e-18
7808.163 2.836e-17 6.314e-18
7809.707 2.955e-17 6.09e-18
7811.251 3.32e-17 5.597e-18
7812.794 1.713e-17 4.959e-18
7814.338 1.555e-17 4.932e-18
7815.881 2.726e-17 5.749e-18
7817.425 4.227e-17 7.542e-18
7818.969 1.003e-17 8.533e-18
7820.512 1.152e-17 8.761e-18
7822.056 2.912e-17 8.603e-18
7823.599 3.944e-17 7.426e-18
7825.143 2.178e-17 6.015e-18
7826.686 2.859e-17 5.246e-18
7828.23 2.785e-17 4.974e-18
7829.774 2.412e-17 4.901e-18
7831.317 2.959e-17 4.876e-18
7832.862 2.69e-17 4.878e-18
7834.405 1.765e-17 4.759e-18
7835.949 3.818e-17 5.276e-18
7837.493 3.002e-17 5.778e-18
7839.036 1.504e-17 6.077e-18
7840.58 2.172e-17 6.234e-18
7842.123 2.086e-17 6.094e-18
7843.668 2.97e-17 5.721e-18
7845.211 2.505e-17 5.436e-18
7846.755 3.578e-17 5.865e-18
7848.299 2.473e-17 7.063e-18
7849.842 3.016e-17 8.523e-18
7851.387 3.959e-17 9.483e-18
7852.93 3.175e-17 9.611e-18
7854.474 1.536e-17 9.107e-18
7856.018 3.07e-17 8.421e-18
7857.562 3.379e-17 7.755e-18
7859.106 4.028e-17 7.662e-18
7860.649 2.746e-17 7.27e-18
7862.194 1.937e-17 6.768e-18
7863.737 2.695e-17 6.368e-18
7865.281 2.999e-17 6.634e-18
7866.825 1.94e-17 7.347e-18
7868.369 2.576e-17 8.038e-18
7869.913 2.015e-17 7.909e-18
7871.456 1.571e-17 7.435e-18
7873.001 2.384e-17 6.879e-18
7874.545 3.601e-17 6.339e-18
7876.088 1.35e-17 6.315e-18
7877.633 1.737e-17 6.688e-18
7879.176 2.222e-17 6.914e-18
7880.721 2.189e-17 6.797e-18
7882.264 2.598e-17 6.552e-18
7883.808 1.753e-17 6.039e-18
7885.353 1.815e-17 6.437e-18
7886.896 2.251e-17 7.246e-18
7888.441 1.188e-17 7.505e-18
7889.984 3.631e-17 7.695e-18
7891.528 3.487e-17 7.11e-18
7893.073 4.798e-17 6.654e-18
7894.616 2.378e-17 5.483e-18
7896.161 1.993e-17 5.154e-18
7897.704 2.148e-17 5.076e-18
7899.249 2.221e-17 4.96e-18
7900.792 2.317e-17 5.07e-18
7902.337 2.22e-17 5.065e-18
7903.881 1.91e-17 4.924e-18
7905.425 2.36e-17 5.159e-18
7906.969 2.211e-17 5.659e-18
7908.513 3.018e-17 7.16e-18
7910.057 2.992e-17 9.299e-18
7911.602 2.477e-17 1.077e-17
7913.146 2.797e-17 1.071e-17
7914.69 2.508e-17 1.007e-17
7916.234 2.408e-17 8.914e-18
7917.778 1.078e-17 8.051e-18
7919.322 2.582e-17 7.995e-18
7920.866 2.806e-17 7.759e-18
7922.411 1.436e-17 7.012e-18
7923.955 2.856e-17 6.255e-18
7925.499 2.835e-17 5.855e-18
7927.043 2.818e-17 6.181e-18
7928.588 2.006e-17 6.502e-18
7930.132 2.6e-17 6.918e-18
7931.676 1.995e-17 6.742e-18
7933.221 3.762e-17 6.417e-18
7934.764 2.681e-17 5.657e-18
7936.309 2.304e-17 5.124e-18
7937.853 3.085e-17 4.918e-18
7939.397 2.352e-17 4.937e-18
7940.942 2.397e-17 5.049e-18
7942.486 2.772e-17 5.167e-18
7944.03 2.409e-17 5.529e-18
7945.574 2.289e-17 6.15e-18
7947.119 3.196e-17 6.625e-18
7948.663 3.807e-17 6.671e-18
7950.207 2.374e-17 6.232e-18
7951.752 2.394e-17 5.767e-18
7953.296 2.012e-17 5.08e-18
7954.841 1.973e-17 4.998e-18
7956.384 2.806e-17 5.014e-18
7957.929 2.34e-17 5.15e-18
7959.474 2.702e-17 6.536e-18
7961.018 2.669e-17 8.353e-18
7962.563 1.829e-17 9.301e-18
7964.106 2.073e-17 9.657e-18
7965.651 2.728e-17 9.057e-18
7967.195 2.102e-17 7.503e-18
7968.74 1.315e-17 6.147e-18
7970.285 2.276e-17 5.342e-18
7971.829 2.508e-17 5.146e-18
7973.374 2.113e-17 5.435e-18
7974.917 2.423e-17 6.085e-18
7976.462 2.393e-17 6.955e-18
7978.007 1.81e-17 7.277e-18
7979.551 2.641e-17 7.438e-18
7981.096 3.115e-17 6.628e-18
7982.64 2.413e-17 5.82e-18
7984.185 2.537e-17 5.338e-18
7985.729 1.633e-17 5.094e-18
7987.274 2.645e-17 5.569e-18
7988.819 1.84e-17 7.265e-18
7990.363 1.106e-17 8.941e-18
7991.907 1.654e-17 9.81e-18
7993.451 2.599e-17 9.828e-18
7994.996 1.305e-17 8.705e-18
7996.541 2.554e-17 6.953e-18
7998.085 1.351e-17 5.519e-18
7999.63 2.033e-17 5.089e-18
8001.174 2.407e-17 4.947e-18
8002.719 1.943e-17 4.857e-18
8004.263 1.802e-17 4.91e-18
8005.808 2.711e-17 4.879e-18
8007.353 1.32e-17 4.709e-18
8008.897 3.045e-17 5.263e-18
8010.443 2.437e-17 5.895e-18
8011.987 1.441e-17 6.293e-18
8013.532 2.811e-17 6.641e-18
8015.077 2.033e-17 6.269e-18
8016.621 2.626e-17 5.747e-18
8018.166 1.573e-17 5.367e-18
8019.71 2.445e-17 5.373e-18
8021.255 2.174e-17 6.518e-18
8022.799 1.893e-17 7.887e-18
8024.344 3.314e-18 8.326e-18
8025.889 1.602e-17 8.339e-18
8027.434 3.164e-17 7.794e-18
8028.979 3.061e-17 6.617e-18
8030.523 2.008e-17 5.483e-18
8032.068 2.485e-17 5.103e-18
8033.613 2.475e-17 4.867e-18
8035.157 2.454e-17 4.692e-18
8036.702 2.099e-17 4.599e-18
8038.247 2.83e-17 4.622e-18
8039.792 1.88e-17 4.597e-18
8041.336 2.705e-17 4.765e-18
8042.881 2.132e-17 4.678e-18
8044.426 2.238e-17 4.7e-18
8045.971 1.447e-17 4.641e-18
8047.516 2.864e-17 5.294e-18
8049.06 2.618e-17 5.511e-18
8050.605 2.38e-17 5.805e-18
8052.151 4.02e-17 5.85e-18
8053.695 3.094e-17 5.426e-18
8055.24 3.059e-17 5.004e-18
8056.784 2.844e-17 5.118e-18
8058.33 2.882e-17 5.935e-18
8059.874 2.933e-17 6.547e-18
8061.419 2.431e-17 6.667e-18
8062.964 3.208e-17 6.645e-18
8064.509 2.57e-17 5.713e-18
8066.054 2.068e-17 5.151e-18
8067.598 2.864e-17 4.802e-18
8069.144 2.693e-17 4.571e-18
8070.689 3.28e-17 4.664e-18
8072.233 2.815e-17 4.64e-18
8073.779 2.353e-17 4.637e-18
8075.323 2.46e-17 4.564e-18
8076.868 2.632e-17 4.66e-18
8078.413 2.005e-17 4.516e-18
8079.958 2.372e-17 4.546e-18
8081.503 2.469e-17 4.647e-18
8083.048 3.202e-17 4.784e-18
8084.593 2.587e-17 4.619e-18
8086.138 2.902e-17 4.758e-18
8087.683 2.8e-17 4.68e-18
8089.228 3.023e-17 4.682e-18
8090.773 2.953e-17 5.013e-18
8092.318 2.32e-17 5.04e-18
8093.863 1.778e-17 4.819e-18
8095.408 1.954e-17 4.794e-18
8096.953 2.668e-17 4.774e-18
8098.498 3.75e-17 5.14e-18
8100.044 1.528e-17 5.197e-18
8101.588 2.968e-17 5.497e-18
8103.133 2.175e-17 5.21e-18
8104.678 2.398e-17 5.022e-18
8106.223 2.189e-17 4.693e-18
8107.769 2.128e-17 4.575e-18
8109.313 2.613e-17 4.45e-18
8110.859 1.78e-17 4.444e-18
8112.403 1.765e-17 4.397e-18
8113.949 2.338e-17 4.517e-18
8115.493 2.676e-17 4.451e-18
8117.039 2.959e-17 4.484e-18
8118.585 2.438e-17 4.357e-18
8120.129 1.944e-17 4.401e-18
8121.675 2.855e-17 4.449e-18
8123.219 2.337e-17 4.516e-18
8124.765 2.449e-17 4.457e-18
8126.31 1.712e-17 4.389e-18
8127.855 2.061e-17 4.483e-18
8129.4 2.064e-17 4.5e-18
8130.945 2.498e-17 4.707e-18
8132.491 2.047e-17 4.604e-18
8134.035 2.968e-17 4.778e-18
8135.581 2.585e-17 4.82e-18
8137.126 3.612e-17 5.097e-18
8138.671 2.511e-17 5.042e-18
8140.217 2.055e-17 4.735e-18
8141.761 2.809e-17 4.841e-18
8143.307 9.833e-18 4.755e-18
8144.852 2.89e-17 5.076e-18
8146.397 3.064e-17 5.064e-18
8147.943 2.528e-17 4.982e-18
8149.488 2.338e-17 4.883e-18
8151.033 2.436e-17 4.719e-18
8152.578 1.882e-17 4.629e-18
8154.124 2.114e-17 4.629e-18
8155.669 2.12e-17 4.613e-18
8157.214 2.233e-17 4.593e-18
8158.76 2.438e-17 4.691e-18
8160.304 1.742e-17 4.709e-18
8161.85 5.005e-18 4.553e-18
8163.395 3.188e-17 4.952e-18
8164.941 2.407e-17 4.903e-18
8166.486 2.608e-17 4.689e-18
8168.031 1.996e-17 4.59e-18
8169.577 2.606e-17 4.737e-18
8171.122 1.679e-17 4.551e-18
8172.667 2.204e-17 4.711e-18
8174.213 1.72e-17 4.628e-18
8175.758 2.13e-17 4.867e-18
8177.304 2.085e-17 4.894e-18
8178.849 1.896e-17 5.054e-18
8180.394 1.601e-17 5.273e-18
8181.939 9.537e-18 5.263e-18
8183.485 1.664e-17 5.366e-18
8185.031 9.516e-18 5.234e-18
8186.576 2.919e-17 5.36e-18
8188.121 2.02e-17 5.282e-18
8189.666 2.214e-17 5.26e-18
8191.212 2.08e-17 5.587e-18
8192.758 1.904e-17 5.676e-18
8194.303 2.71e-17 5.805e-18
8195.849 2.098e-17 5.644e-18
8197.393 2.182e-17 5.477e-18
8198.939 1.842e-17 5.077e-18
8200.484 2.283e-17 4.926e-18
8202.03 1.973e-17 4.775e-18
8203.576 1.945e-17 4.738e-18
8205.121 1.428e-17 4.553e-18
8206.667 1.787e-17 4.67e-18
8208.212 2.375e-17 4.597e-18
8209.758 1.515e-17 4.421e-18
8211.303 2.598e-17 4.594e-18
8212.848 2.933e-17 4.686e-18
8214.394 1.764e-17 4.56e-18
8215.939 2.041e-17 4.527e-18
8217.485 1.646e-17 4.54e-18
8219.03 1.752e-17 4.519e-18
8220.576 1.66e-17 4.59e-18
8222.122 2.939e-17 4.914e-18
8223.667 2.159e-17 4.934e-18
8225.213 1.9e-17 5.008e-18
8226.758 2.707e-17 5.303e-18
8228.304 2.456e-17 5.41e-18
8229.85 1.855e-17 5.112e-18
8231.395 3.911e-17 5.264e-18
8232.941 2.839e-17 4.945e-18
8234.486 1.952e-17 4.686e-18
8236.032 2.448e-17 4.636e-18
8237.577 2.492e-17 4.701e-18
8239.123 2.538e-17 4.78e-18
8240.669 1.384e-17 4.579e-18
8242.214 3.084e-17 4.92e-18
8243.76 2.152e-17 4.748e-18
8245.305 1.844e-17 4.679e-18
8246.851 1.649e-17 4.638e-18
8248.397 2.015e-17 4.588e-18
8249.942 1.485e-17 4.567e-18
8251.488 2.349e-17 4.744e-18
8253.033 2.05e-17 4.76e-18
8254.579 1.864e-17 4.757e-18
8256.124 2.614e-17 4.861e-18
8257.671 2.301e-17 4.849e-18
8259.217 1.5e-17 4.529e-18
8260.762 2.842e-17 4.813e-18
8262.308 1.969e-17 4.66e-18
8263.853 1.734e-17 4.502e-18
8265.399 2.585e-17 4.589e-18
8266.944 2.59e-17 4.597e-18
8268.49 1.745e-17 4.668e-18
8270.036 2.83e-17 4.821e-18
8271.582 2.018e-17 4.883e-18
8273.128 2.711e-17 5.334e-18
8274.673 1.077e-17 5.829e-18
8276.219 1.038e-17 6.492e-18
8277.765 3.389e-17 7.986e-18
8279.31 2.064e-17 8.591e-18
8280.857 1.282e-17 8.324e-18
8282.402 3.123e-17 8.449e-18
8283.948 2.383e-17 8.379e-18
8285.493 1.557e-17 8.969e-18
8287.039 3.228e-17 9.688e-18
8288.585 2.289e-17 9.186e-18
8290.131 5.298e-18 8.231e-18
8291.677 2.765e-17 7.314e-18
8293.222 2.074e-17 7.172e-18
8294.768 2.674e-17 8.556e-18
8296.315 2.492e-17 9.708e-18
8297.86 3.208e-17 1.012e-17
8299.406 2.261e-17 9.332e-18
8300.951 2.041e-17 8.104e-18
8302.497 2.454e-17 6.419e-18
8304.043 1.592e-17 5.32e-18
8305.589 2.082e-17 5.527e-18
8307.135 2.19e-17 6.114e-18
8308.68 3.553e-17 6.633e-18
8310.227 2.289e-17 6.562e-18
8311.772 1.826e-17 6.364e-18
8313.318 1.601e-17 5.535e-18
8314.865 1.63e-17 5.232e-18
8316.41 1.842e-17 5.117e-18
8317.956 2.319e-17 5.156e-18
8319.501 2.857e-17 5.196e-18
8321.048 1.377e-17 4.752e-18
8322.593 2.333e-17 4.923e-18
8324.139 1.54e-17 4.724e-18
8325.686 2.727e-17 4.82e-18
8327.231 2.306e-17 4.81e-18
8328.777 2.177e-17 4.785e-18
8330.323 2.225e-17 4.902e-18
8331.869 2.395e-17 4.776e-18
8333.415 1.794e-17 4.732e-18
8334.961 2.059e-17 5.043e-18
8336.507 1.788e-17 5.085e-18
8338.053 2.239e-17 5.931e-18
8339.599 1.264e-17 8.553e-18
8341.144 3.188e-17 1.212e-17
8342.691 2.021e-17 1.334e-17
8344.237 9.429e-18 1.352e-17
8345.782 -4.759e-18 1.22e-17
8347.329 2.703e-17 9.917e-18
8348.874 1.887e-17 8.439e-18
8350.421 3.65e-17 9.093e-18
8351.967 7.166e-18 8.697e-18
8353.512 2.257e-17 8.467e-18
8355.059 1.04e-17 7.21e-18
8356.604 1.42e-17 5.698e-18
8358.151 1.392e-17 5.29e-18
8359.696 1.724e-17 5.524e-18
8361.243 3.039e-17 6.159e-18
8362.789 2.342e-17 6.552e-18
8364.334 4.845e-18 6.317e-18
8365.881 9.254e-18 6.031e-18
8367.426 9.419e-18 5.305e-18
8368.973 2.368e-17 5.041e-18
8370.518 1.71e-17 4.712e-18
8372.065 2.352e-17 4.73e-18
8373.611 2.393e-17 4.895e-18
8375.157 2.078e-17 4.886e-18
8376.703 1.966e-17 5.324e-18
8378.249 1.47e-17 6.522e-18
8379.795 3.822e-17 7.553e-18
8381.342 1.565e-17 7.674e-18
8382.887 2.106e-17 7.473e-18
8384.434 2.353e-17 6.679e-18
8385.979 2.191e-17 5.421e-18
8387.526 2.107e-17 4.947e-18
8389.071 2.05e-17 4.932e-18
8390.618 1.653e-17 4.801e-18
8392.164 1.027e-17 4.865e-18
8393.71 1.437e-17 6.351e-18
8395.256 1.1e-17 9.332e-18
8396.802 1.996e-17 1.138e-17
8398.348 -1.319e-17 1.16e-17
8399.895 1.539e-17 1.103e-17
8401.441 2.138e-17 9.037e-18
8402.987 1.013e-17 6.249e-18
8404.533 2.428e-17 5.167e-18
8406.079 2.845e-17 4.814e-18
8407.625 2.082e-17 4.785e-18
8409.171 2.677e-17 5.147e-18
8410.718 2.758e-17 6.322e-18
8412.264 1.598e-17 7.559e-18
8413.81 3.372e-17 8.239e-18
8415.356 2.114e-17 8.093e-18
8416.902 1.551e-17 7.242e-18
8418.449 2.337e-17 5.948e-18
8419.995 2.039e-17 5.084e-18
8421.541 2.566e-17 5.077e-18
8423.087 1.704e-17 5.191e-18
8424.634 1.952e-17 6.305e-18
8426.179 2.607e-17 9.553e-18
8427.726 5.239e-17 1.18e-17
8429.272 2.695e-17 1.211e-17
8430.818 2.062e-17 1.15e-17
8432.365 1.427e-17 9.322e-18
8433.91 5.249e-18 6.402e-18
8435.457 2.118e-17 5.159e-18
8437.004 1.604e-17 4.668e-18
8438.549 1.909e-17 4.487e-18
8440.096 2.299e-17 4.548e-18
8441.642 1.577e-17 4.414e-18
8443.188 2.225e-17 4.543e-18
8444.734 9.792e-18 4.332e-18
8446.281 1.414e-17 4.744e-18
8447.827 1.409e-17 5.699e-18
8449.373 9.689e-18 6.901e-18
8450.92 1.858e-18 7.166e-18
8452.466 2.752e-17 7.33e-18
8454.012 7.349e-18 6.415e-18
8455.559 2.252e-17 5.412e-18
8457.105 2.027e-17 4.808e-18
8458.651 1.63e-17 4.802e-18
8460.197 1.972e-17 6.157e-18
8461.744 1.683e-17 8.627e-18
8463.29 3.1e-17 1.013e-17
8464.836 2.274e-19 1.015e-17
8466.383 2.544e-17 9.585e-18
8467.929 1.608e-17 7.387e-18
8469.476 1.898e-17 5.446e-18
8471.021 2.311e-17 4.808e-18
8472.568 1.71e-17 4.644e-18
8474.114 2.27e-17 4.628e-18
8475.661 1.742e-17 4.59e-18
8477.207 2.768e-17 4.57e-18
8478.753 1.876e-17 4.4e-18
8480.3 2.522e-17 4.46e-18
8481.846 1.787e-17 4.329e-18
8483.392 1.93e-17 4.282e-18
8484.939 2.43e-17 4.372e-18
8486.485 2.32e-17 4.382e-18
8488.032 2.128e-17 4.564e-18
8489.578 1.15e-17 5.371e-18
8491.124 3.242e-17 6.286e-18
8492.67 4.808e-18 6.1e-18
8494.217 1.991e-17 6.077e-18
8495.764 1.327e-17 5.335e-18
8497.31 2.72e-17 4.858e-18
8498.857 1.679e-17 4.705e-18
8500.402 2.699e-17 6.061e-18
8501.949 2.896e-17 7.582e-18
8503.496 3.462e-17 8.031e-18
8505.042 9.951e-18 7.669e-18
8506.589 2.077e-17 6.839e-18
8508.135 1.645e-17 5.268e-18
8509.681 1.222e-17 4.378e-18
8511.227 2.459e-17 4.248e-18
8512.774 1.932e-17 4.2e-18
8514.321 1.356e-17 4.217e-18
8515.867 2.099e-17 4.246e-18
8517.414 1.513e-17 4.217e-18
8518.96 9.66e-18 4.191e-18
8520.506 1.485e-17 4.188e-18
8522.053 1.126e-17 4.125e-18
8523.599 1.296e-17 4.105e-18
8525.146 2.089e-17 4.288e-18
8526.692 1.074e-17 4.075e-18
8528.239 1.959e-17 4.207e-18
8529.785 2.337e-17 4.304e-18
8531.332 2.432e-17 4.253e-18
8532.879 1.977e-17 4.314e-18
8534.425 1.987e-17 4.642e-18
8535.971 2.098e-17 5.047e-18
8537.517 1.939e-17 5.194e-18
8539.064 2.221e-17 5.225e-18
8540.611 2.6e-17 4.991e-18
8542.157 2.328e-17 4.675e-18
8543.704 1.411e-17 4.694e-18
8545.25 2.333e-17 5.57e-18
8546.797 1.175e-17 5.947e-18
8548.343 2.022e-17 6.075e-18
8549.89 1.289e-17 5.655e-18
8551.437 1.003e-17 4.93e-18
8552.983 2.283e-17 4.62e-18
8554.53 1.658e-17 4.259e-18
8556.076 2.082e-17 4.244e-18
8557.623 1.109e-17 4.181e-18
8559.169 2.154e-17 4.295e-18
8560.716 2.296e-17 4.344e-18
8562.263 1.511e-17 4.197e-18
8563.808 2.234e-17 4.276e-18
8565.355 2.253e-17 4.255e-18
8566.901 2.082e-17 4.264e-18
8568.448 1.928e-17 4.342e-18
8569.995 1.969e-17 4.317e-18
8571.541 1.657e-17 4.35e-18
8573.088 2.259e-17 4.419e-18
8574.634 2.504e-17 4.496e-18
8576.181 1.442e-17 4.326e-18
8577.727 1.602e-17 4.398e-18
8579.274 2.161e-17 4.376e-18
8580.821 1.903e-17 4.348e-18
8582.367 1.935e-17 4.331e-18
8583.914 1.995e-17 4.558e-18
8585.46 2.291e-17 4.854e-18
8587.008 1.714e-17 4.842e-18
8588.555 1.774e-17 4.866e-18
8590.101 1.403e-17 4.595e-18
8591.648 2.077e-17 4.66e-18
8593.194 2.626e-17 4.872e-18
8594.741 2.152e-17 5.125e-18
8596.287 1.634e-17 5.042e-18
8597.834 1.405e-17 4.985e-18
8599.381 1.507e-17 4.679e-18
8600.927 1.216e-17 4.462e-18
8602.474 2.605e-17 4.631e-18
8604.02 1.235e-17 4.501e-18
8605.567 1.917e-17 4.571e-18
8607.114 2.186e-17 4.619e-18
8608.66 1.791e-17 4.695e-18
8610.207 1.703e-17 4.795e-18
8611.753 1.651e-17 4.99e-18
8613.3 1.53e-17 5.143e-18
8614.846 1.698e-17 5.468e-18
8616.394 2.314e-17 5.771e-18
8617.941 1.68e-17 5.945e-18
8619.487 2.38e-17 6.204e-18
8621.034 1.832e-17 6.536e-18
8622.58 1.817e-17 6.63e-18
8624.127 2.08e-17 6.973e-18
8625.673 2.276e-17 7.048e-18
8627.22 2.276e-17 7.186e-18
8628.767 1.42e-17 7.096e-18
8630.313 3.512e-17 7.231e-18
8631.861 1.88e-17 6.937e-18
8633.407 2.999e-17 6.914e-18
8634.954 1.031e-17 6.47e-18
8636.501 2.419e-17 6.403e-18
8638.047 2.108e-17 6.105e-18
8639.594 1.604e-17 5.784e-18
8641.14 1.919e-17 5.469e-18
8642.687 7.894e-18 5.23e-18
8644.234 2.056e-17 5.351e-18
8645.781 1.753e-17 5.693e-18
8647.328 1.839e-17 6.302e-18
8648.874 2.02e-17 6.628e-18
8650.421 5.317e-18 6.653e-18
8651.967 2.675e-17 7.142e-18
8653.514 1.912e-17 6.969e-18
8655.062 1.381e-17 6.905e-18
8656.608 1.781e-17 7.173e-18
8658.155 2.689e-17 7.047e-18
8659.701 2.061e-17 6.883e-18
8661.248 1.59e-17 7.083e-18
8662.794 1.428e-17 6.914e-18
8664.342 1.811e-17 6.636e-18
8665.889 1.541e-17 6.76e-18
8667.435 1.577e-17 6.647e-18
8668.982 1.774e-17 6.452e-18
8670.528 1.745e-17 6.348e-18
8672.076 2.078e-17 6.286e-18
8673.623 8.536e-18 5.955e-18
8675.169 1.283e-17 5.904e-18
8676.716 2.757e-17 5.953e-18
8678.262 5.618e-18 5.528e-18
8679.809 1.921e-17 5.632e-18
8681.356 2.217e-17 5.508e-18
8682.903 2.577e-17 5.489e-18
8684.45 2.598e-17 5.356e-18
8685.996 2.412e-17 5.132e-18
8687.543 2.308e-17 5.241e-18
8689.09 1.182e-17 4.96e-18
8690.637 9.534e-18 4.851e-18
8692.184 1.468e-17 4.898e-18
8693.73 1.251e-17 4.892e-18
8695.278 2.274e-17 4.983e-18
8696.824 1.498e-17 4.925e-18
8698.371 2.951e-17 5.173e-18
8699.917 1.046e-17 4.962e-18
8701.464 1.565e-17 4.909e-18
8703.012 1.949e-17 4.959e-18
8704.558 1.766e-17 4.964e-18
8706.105 2.201e-17 5.1e-18
8707.651 1.197e-17 4.989e-18
8709.199 2.035e-17 4.901e-18
8710.745 1.354e-17 4.747e-18
8712.292 1.856e-17 4.649e-18
8713.839 2.298e-17 4.73e-18
8715.386 1.872e-17 4.617e-18
8716.933 2.103e-17 4.74e-18
8718.479 1.426e-17 4.57e-18
8720.026 1.744e-17 4.711e-18
8721.574 1.68e-17 4.618e-18
8723.12 1.924e-17 4.767e-18
8724.667 1.96e-17 4.724e-18
8726.213 2.406e-17 4.798e-18
8727.761 1.538e-17 4.739e-18
8729.307 1.184e-17 4.571e-18
8730.854 1.865e-17 4.659e-18
8732.402 2.446e-17 4.708e-18
8733.948 1.212e-17 4.546e-18
8735.495 2.426e-17 4.823e-18
8737.041 1.73e-17 4.728e-18
8738.589 1.918e-17 4.789e-18
8740.136 1.5e-17 4.712e-18
8741.682 1.86e-17 4.833e-18
8743.23 1.421e-17 4.751e-18
8744.776 2.02e-17 4.829e-18
8746.323 1.958e-17 4.774e-18
8747.869 2.065e-17 4.884e-18
8749.417 1.677e-17 4.782e-18
8750.964 1.358e-17 4.815e-18
8752.51 7.188e-18 4.779e-18
8754.058 1.887e-17 5.524e-18
8755.604 2.349e-17 6.852e-18
8757.151 2.597e-17 8.875e-18
8758.699 2.718e-17 1.036e-17
8760.245 2.288e-17 1.055e-17
8761.792 9.256e-18 1.024e-17
8763.339 1.979e-17 1.078e-17
8764.886 2.669e-17 1.153e-17
8766.432 2.042e-17 1.164e-17
8767.98 2.516e-17 1.108e-17
8769.527 2.806e-19 9.252e-18
8771.073 -5.195e-18 6.933e-18
8772.621 1.659e-17 7.856e-18
8774.167 1.904e-17 1.03e-17
8775.714 1.183e-17 1.209e-17
8777.26 3.922e-17 1.233e-17
8778.808 6.354e-18 1.11e-17
8780.355 3.433e-17 8.796e-18
8781.902 1.627e-17 6.05e-18
8783.449 6.007e-18 4.975e-18
8784.995 2.368e-17 5.088e-18
8786.543 8.709e-18 5.918e-18
8788.09 1.197e-17 7.28e-18
8789.636 2.135e-17 7.655e-18
8791.184 2.347e-17 7.7e-18
8792.73 1.931e-17 6.901e-18
8794.277 1.661e-17 5.552e-18
8795.824 1.542e-17 4.898e-18
8797.371 2.382e-17 4.808e-18
8798.918 2.165e-17 4.766e-18
8800.465 1.465e-17 4.778e-18
8802.012 1.461e-17 4.675e-18
8803.558 1.148e-17 4.719e-18
8805.106 2.111e-17 4.791e-18
8806.653 4.805e-18 4.854e-18
8808.2 2.873e-17 5.201e-18
8809.747 2.165e-17 5.066e-18
8811.293 1.516e-17 5.02e-18
8812.841 1.987e-17 4.808e-18
8814.387 3.105e-17 4.958e-18
8815.934 1.259e-17 4.684e-18
8817.482 2.29e-17 4.867e-18
8819.028 4.086e-18 4.756e-18
8820.576 2.215e-17 5.891e-18
8822.122 3.304e-18 9.578e-18
8823.669 3.837e-17 1.49e-17
8825.217 -7.037e-18 1.627e-17
8826.763 -2.33e-17 1.629e-17
8828.31 5.124e-18 1.467e-17
8829.857 2.044e-17 1.01e-17
8831.404 2.291e-18 7.889e-18
8832.951 4.599e-17 1.008e-17
8834.498 2.793e-17 1.075e-17
8836.045 1.869e-17 1.036e-17
8837.592 2.865e-17 9.495e-18
8839.139 2.75e-17 6.96e-18
8840.686 8.791e-18 5.276e-18
8842.233 1.103e-17 4.918e-18
8843.779 1.71e-17 5.058e-18
8845.327 1.34e-17 5.741e-18
8846.874 1.826e-17 6.818e-18
8848.421 2.993e-17 7.087e-18
8849.968 5.004e-18 6.812e-18
8851.514 1.846e-17 6.263e-18
8853.062 1.556e-17 5.116e-18
8854.609 1.554e-17 4.744e-18
8856.156 2.418e-17 4.747e-18
8857.703 2.138e-17 4.794e-18
8859.25 1.872e-17 4.922e-18
8860.797 2.074e-17 5.057e-18
8862.343 1.456e-17 5.739e-18
8863.891 1.871e-17 7.916e-18
8865.438 3.403e-17 8.933e-18
8866.985 8.632e-18 8.777e-18
8868.532 2.453e-17 8.405e-18
8870.078 1.834e-17 6.497e-18
8871.626 4.235e-18 4.857e-18
8873.173 1.746e-17 4.697e-18
8874.72 1.706e-17 4.595e-18
8876.267 2.231e-17 4.647e-18
8877.814 2.019e-17 4.684e-18
8879.361 2.083e-17 5.031e-18
8880.907 2.068e-18 7.645e-18
8882.455 4.625e-17 1.248e-17
8884.002 1.719e-17 1.381e-17
8885.549 2.746e-17 1.386e-17
8887.096 3.335e-17 1.267e-17
8888.643 1.947e-17 8.249e-18
8890.19 1.36e-17 5.494e-18
8891.737 1.222e-17 4.903e-18
8893.284 1.45e-17 4.671e-18
8894.831 1.683e-17 4.754e-18
8896.378 2.201e-17 4.954e-18
8897.925 1.233e-17 5.719e-18
8899.472 2.075e-17 8.259e-18
8901.019 2.7e-17 9.501e-18
8902.567 1.846e-17 9.486e-18
8904.113 7.658e-18 8.848e-18
8905.66 1.468e-18 6.662e-18
8907.207 2.013e-17 5.325e-18
8908.754 6.351e-18 4.845e-18
8910.301 1.744e-17 4.89e-18
8911.848 1.843e-17 4.884e-18
8913.396 1.875e-17 5.316e-18
8914.942 8.734e-18 8.974e-18
8916.49 5.571e-17 1.364e-17
8918.036 1.876e-17 1.485e-17
8919.584 2.69e-17 1.453e-17
8921.131 4.992e-17 1.272e-17
8922.677 -1.296e-17 7.466e-18
8924.225 1.703e-17 5.465e-18
8925.771 2.241e-17 5.316e-18
8927.319 1.908e-17 5.091e-18
8928.865 2.602e-17 5.076e-18
8930.413 1.564e-17 4.935e-18
8931.96 1.737e-17 4.703e-18
8933.507 1.323e-17 4.785e-18
8935.054 2.102e-17 4.79e-18
8936.601 1.945e-17 4.853e-18
8938.148 1.038e-17 5.366e-18
8939.696 2.477e-17 7.831e-18
8941.242 5.232e-18 8.651e-18
8942.789 3.025e-17 8.975e-18
8944.336 3.246e-17 8.793e-18
8945.883 2.483e-17 6.57e-18
8947.43 1.228e-17 4.938e-18
8948.977 1.777e-17 4.839e-18
8950.525 2.637e-17 4.866e-18
8952.071 7.117e-18 5.195e-18
8953.619 -5.616e-18 9.029e-18
8955.165 3.173e-17 1.285e-17
8956.713 -6.025e-18 1.28e-17
8958.26 1.418e-17 1.281e-17
8959.807 3.903e-17 1.104e-17
8961.354 9.834e-18 6.842e-18
8962.901 1.765e-17 5.461e-18
8964.448 1.56e-17 4.934e-18
8965.994 2.044e-17 4.796e-18
8967.542 1.826e-17 5.05e-18
8969.089 2.248e-17 5.027e-18
8970.636 1.967e-17 5.217e-18
8972.183 1.806e-17 5.161e-18
8973.73 1.699e-17 4.916e-18
8975.277 1.787e-17 4.813e-18
8976.824 3.037e-17 5.06e-18
8978.371 1.607e-17 4.85e-18
8979.919 1.764e-17 4.982e-18
8981.465 1.72e-17 4.956e-18
8983.013 1.539e-17 5.47e-18
8984.559 1.925e-17 7.33e-18
8986.107 2.099e-17 8.662e-18
8987.654 -6.926e-19 9.2e-18
8989.201 1.301e-17 8.973e-18
8990.748 1.557e-17 7.074e-18
8992.295 1.03e-17 5.612e-18
8993.842 1.929e-17 5.113e-18
8995.389 8.728e-18 4.944e-18
8996.936 2.467e-17 7.867e-18
8998.483 1.423e-17 1.037e-17
9000.03 -1.086e-17 1.104e-17
9001.577 2.383e-17 1.14e-17
9003.124 1.889e-17 9.061e-18
9004.671 1.942e-17 6.108e-18
9006.219 1.609e-17 4.928e-18
9007.765 1.814e-17 4.887e-18
9009.313 2.03e-17 4.629e-18
9010.859 1.728e-17 4.626e-18
9012.407 1.725e-17 4.604e-18
9013.953 1.441e-17 4.714e-18
9015.501 1.419e-17 4.797e-18
9017.048 2.063e-17 4.96e-18
9018.595 1.724e-17 4.941e-18
9020.142 2.192e-17 5.153e-18
9021.689 2.736e-17 5.143e-18
9023.236 2.097e-17 4.897e-18
9024.784 7.616e-18 4.8e-18
9026.33 2.91e-17 5.066e-18
9027.878 1.841e-17 4.811e-18
9029.424 2.143e-17 4.693e-18
9030.972 2.468e-17 4.72e-18
9032.518 1.853e-17 4.784e-18
9034.066 2.347e-17 5.528e-18
9035.613 1.532e-17 6.031e-18
9037.159 1.567e-17 6.215e-18
9038.707 2.34e-17 6.277e-18
9040.253 3.366e-18 5.49e-18
9041.801 1.729e-17 5.008e-18
9043.347 1.894e-17 4.918e-18
9044.895 2.544e-17 5.874e-18
9046.442 2.138e-17 7.296e-18
9047.989 2.023e-17 7.653e-18
9049.536 1.797e-17 7.567e-18
9051.083 2.84e-17 7.16e-18
9052.63 1.006e-17 5.407e-18
9054.178 5.595e-18 4.7e-18
9055.724 1.397e-17 4.748e-18
9057.272 8.74e-18 4.525e-18
9058.818 9.001e-18 4.724e-18
9060.366 1.343e-17 4.756e-18
9061.912 1.485e-17 4.854e-18
9063.46 8.339e-18 4.653e-18
9065.007 2.583e-17 5.091e-18
9066.554 5.426e-18 4.934e-18
9068.101 2.261e-17 5.242e-18
9069.648 1.471e-17 5.303e-18
9071.195 1.748e-17 5.316e-18
9072.742 1.183e-17 4.838e-18
9074.289 1.852e-17 4.807e-18
9075.836 1.323e-17 4.762e-18
9077.383 2.031e-17 5.041e-18
9078.93 9.381e-18 4.942e-18
9080.477 9.331e-18 4.999e-18
9082.024 8.351e-18 4.874e-18
9083.572 1.741e-17 5.048e-18
9085.118 1.392e-17 4.976e-18
9086.666 1.383e-17 5.032e-18
9088.212 1.812e-17 5.321e-18
9089.76 7.708e-18 5.675e-18
9091.306 2.385e-17 5.996e-18
9092.854 2.35e-17 5.938e-18
9094.401 2.913e-17 5.7e-18
9095.948 8.552e-18 5.257e-18
9097.495 1.545e-17 5.45e-18
9099.042 2.008e-17 6.391e-18
9100.589 2.621e-17 6.996e-18
9102.136 1.972e-17 6.769e-18
9103.683 1.893e-17 6.679e-18
9105.23 1.432e-17 5.937e-18
9106.777 2.105e-17 5.281e-18
9108.324 1.053e-17 4.817e-18
9109.871 1.332e-17 4.713e-18
9111.418 1.584e-17 4.594e-18
9112.966 1.623e-17 4.798e-18
9114.512 1.258e-17 4.8e-18
9116.06 1.475e-17 5.162e-18
9117.606 2.098e-17 5.287e-18
9119.154 9.751e-18 4.979e-18
9120.701 2.005e-17 4.903e-18
9122.247 1.447e-17 4.704e-18
9123.795 1.141e-17 4.626e-18
9125.341 2.016e-17 5.033e-18
9126.889 2.314e-17 5.095e-18
9128.435 1.693e-17 5.284e-18
9129.983 1.301e-17 5.319e-18
9131.53 1.521e-17 5.391e-18
9133.077 2.828e-17 5.607e-18
9134.624 1.773e-17 5.67e-18
9136.171 1.671e-17 5.358e-18
9137.718 8.156e-18 5.058e-18
9139.266 1.904e-17 4.943e-18
9140.812 1.743e-17 4.774e-18
9142.359 2.105e-17 4.994e-18
9143.906 1.614e-17 4.917e-18
9145.453 1.669e-17 4.812e-18
9147.0 1.549e-17 5.073e-18
9148.547 1.023e-17 5.673e-18
9150.095 2.111e-17 6.332e-18
9151.641 5.643e-18 6.468e-18
9153.189 1.908e-17 6.685e-18
9154.735 2.533e-17 6.172e-18
9156.282 9.494e-18 5.813e-18
9157.829 2.068e-17 6.327e-18
9159.376 2.091e-17 6.099e-18
9160.924 2.531e-17 5.913e-18
9162.47 1.474e-17 5.635e-18
9164.018 8.135e-18 5.087e-18
9165.564 2.564e-17 5.221e-18
9167.111 6.137e-18 4.826e-18
9168.659 8.825e-18 5.039e-18
9170.205 2.561e-17 5.284e-18
9171.753 2.52e-17 5.507e-18
9173.299 1.626e-17 5.528e-18
9174.847 7.968e-18 5.379e-18
9176.393 2.358e-17 5.508e-18
9177.941 1.377e-17 5.088e-18
9179.488 1.317e-17 4.899e-18
9181.034 2.424e-17 5.168e-18
9182.582 1.208e-17 5.203e-18
9184.128 1.505e-17 5.037e-18
9185.676 1.667e-17 5.011e-18
9187.223 1.972e-17 4.919e-18
9188.769 1.391e-17 4.908e-18
9190.317 1.649e-17 4.869e-18
9191.863 1.339e-17 5.029e-18
9193.411 9.253e-18 4.908e-18
9194.957 1.805e-17 5.032e-18
9196.505 1.83e-17 5.007e-18
9198.052 1.387e-17 5.006e-18
9199.598 2.678e-17 4.959e-18
9201.146 2.114e-17 4.856e-18
9202.692 1.026e-17 4.802e-18
9204.24 9.093e-18 4.71e-18
9205.787 8.371e-18 4.937e-18
9207.333 1.095e-17 5.134e-18
9208.881 1.663e-17 4.92e-18
9210.427 1.572e-17 5.04e-18
9211.975 1.223e-17 5.293e-18
9213.521 1.545e-17 5.731e-18
9215.068 2.316e-17 5.93e-18
9216.616 1.17e-17 5.784e-18
9218.162 1.969e-17 5.518e-18
9219.71 2.092e-17 5.432e-18
9221.256 6.885e-18 5.462e-18
9222.803 1.011e-17 5.732e-18
9224.35 2.09e-17 5.795e-18
9225.897 1.685e-17 5.765e-18
9227.445 1.691e-17 5.353e-18
9228.991 1.899e-17 5.18e-18
9230.538 1.166e-17 5.16e-18
9232.085 2.104e-17 5.205e-18
9233.632 1.339e-17 5.015e-18
9235.179 1.489e-17 5.106e-18
9236.726 1.534e-17 5.025e-18
9238.273 1.918e-17 5.085e-18
9239.82 1.289e-17 5.072e-18
9241.367 1.603e-17 5.185e-18
9242.913 1.231e-17 5.072e-18
9244.461 1.135e-17 5.172e-18
9246.008 1.678e-17 5.403e-18
9247.554 1.474e-17 5.465e-18
9249.102 2.025e-17 5.358e-18
9250.648 1.766e-17 5.315e-18
9252.196 1.377e-17 5.283e-18
9253.743 1.201e-17 5.131e-18
9255.289 1.78e-17 5.12e-18
9256.837 2.235e-17 5.021e-18
9258.383 1.243e-17 5e-18
9259.93 2.023e-17 5.276e-18
9261.477 1.659e-17 5.17e-18
9263.024 1.172e-17 4.887e-18
9264.571 1.444e-17 5.012e-18
9266.118 1.685e-17 4.935e-18
9267.665 1.737e-17 4.969e-18
9269.211 1.342e-17 4.97e-18
9270.759 1.538e-17 5.038e-18
9272.305 1.063e-17 4.977e-18
9273.852 1.34e-17 5.011e-18
9275.4 2.009e-17 5.259e-18
9276.946 1.863e-17 5.414e-18
9278.493 1.836e-17 5.599e-18
9280.04 1.906e-17 5.351e-18
9281.587 3.053e-17 5.654e-18
9283.134 2.309e-17 5.867e-18
9284.681 2.141e-17 6.139e-18
9286.228 2.688e-17 6.245e-18
9287.774 1.603e-17 5.712e-18
9289.322 1.923e-17 5.965e-18
9290.868 1.057e-17 6.113e-18
9292.415 8.402e-18 6.176e-18
9293.963 1.268e-17 6.561e-18
9295.509 2.654e-17 6.532e-18
9297.056 2.756e-17 6.319e-18
9298.603 1.162e-17 6.289e-18
9300.15 6.408e-18 6.82e-18
9301.697 1.288e-17 9.269e-18
9303.243 9.611e-18 1.275e-17
9304.791 3.388e-17 1.588e-17
9306.337 1.908e-17 1.741e-17
9307.884 1.93e-18 1.859e-17
9309.431 6.889e-17 2.017e-17
9310.978 7.202e-18 1.961e-17
9312.525 3.419e-17 2.012e-17
9314.072 -2.62e-17 2.263e-17
9315.619 2.552e-17 1.825e-17
9317.165 -2.126e-18 1.151e-17
9318.712 -1.87e-17 1.295e-17
9320.26 2.667e-17 1.824e-17
9321.806 3.548e-17 2.141e-17
9323.353 -9.838e-18 2.312e-17
9324.899 -9.479e-18 2.029e-17
9326.447 -9.817e-18 1.114e-17
9327.993 1.153e-18 8.154e-18
9329.54 2.425e-17 8.159e-18
9331.088 3.086e-17 8.993e-18
9332.634 4.919e-18 1.042e-17
9334.181 8.502e-18 1.376e-17
9335.727 2.433e-17 1.477e-17
9337.275 4.207e-18 1.416e-17
9338.821 4.581e-17 1.478e-17
9340.368 9.594e-18 1.262e-17
9341.915 -1.727e-17 1.3e-17
9343.462 3.505e-18 1.292e-17
9345.009 1.543e-17 1.001e-17
9346.555 1.843e-17 8.115e-18
9348.102 2.837e-18 7.247e-18
9349.65 1.431e-17 7.486e-18
9351.196 1.617e-17 8.548e-18
9352.743 1.818e-17 9.64e-18
9354.289 3.748e-17 1.064e-17
9355.836 1.736e-17 1.027e-17
9357.383 4.783e-19 9.118e-18
9358.93 3.123e-17 8.373e-18
9360.477 3.372e-17 7.279e-18
9362.023 1.085e-17 7.196e-18
9363.571 2.033e-18 7.934e-18
9365.117 1.701e-17 8.653e-18
9366.664 1.051e-19 9.622e-18
9368.211 2.742e-17 1.154e-17
9369.757 -3.635e-18 1.478e-17
9371.305 -3.672e-18 2.334e-17
9372.851 5.876e-17 2.899e-17
9374.398 4.042e-17 3.146e-17
9375.944 2.388e-17 3.192e-17
9377.491 5.761e-17 3.31e-17
9379.039 -4.433e-17 1.905e-17
9380.585 4.733e-18 1.132e-17
9382.132 1.222e-17 9.862e-18
9383.678 1.93e-17 9.009e-18
9385.225 1.794e-17 7.893e-18
9386.772 -3.777e-19 7.305e-18
9388.319 1.285e-17 6.587e-18
9389.866 2.195e-17 5.977e-18
9391.412 1.592e-17 5.826e-18
9392.959 9.502e-19 5.842e-18
9394.505 2.674e-17 6.362e-18
9396.053 8.951e-18 6.777e-18
9397.6 2.528e-17 8.812e-18
9399.146 1.853e-18 1.074e-17
9400.693 3.592e-17 1.129e-17
9402.239 2.38e-17 1.087e-17
9403.786 1.643e-17 8.778e-18
9405.332 1.409e-17 6.895e-18
9406.88 1.836e-17 6.847e-18
9408.427 1.715e-17 6.874e-18
9409.973 -6.597e-18 6.488e-18
9411.52 1.777e-17 6.577e-18
9413.066 1.791e-17 6.408e-18
9414.613 7.999e-18 7.836e-18
9416.16 3.203e-17 1.243e-17
9417.706 9.956e-18 1.384e-17
9419.254 5.759e-18 1.361e-17
9420.8 1.516e-17 1.25e-17
9422.347 2.185e-17 9.502e-18
9423.893 1.33e-17 8.586e-18
9425.44 1.927e-17 9.794e-18
9426.987 2.419e-17 1.078e-17
9428.533 2.19e-17 8.734e-18
9430.08 9.32e-18 7.349e-18
9431.626 1.905e-17 6.521e-18
9433.174 8.981e-18 6.742e-18
9434.721 3.515e-18 1.205e-17
9436.267 1.704e-17 2.186e-17
9437.814 5.287e-17 3.018e-17
9439.36 2.805e-17 3.429e-17
9440.907 5.164e-17 3.093e-17
9442.453 -2.954e-17 1.602e-17
9444.0 5.221e-18 9.183e-18
9445.547 -1.099e-17 7.583e-18
9447.093 2.266e-17 7.464e-18
9448.64 2.182e-17 7.153e-18
9450.186 2.935e-17 7.398e-18
9451.733 1.009e-17 7.641e-18
9453.279 7.418e-18 1.036e-17
9454.827 2.088e-17 1.693e-17
9456.374 -5.028e-18 1.898e-17
9457.92 1.888e-17 2.065e-17
9459.467 3.101e-17 1.918e-17
9461.013 3.048e-17 1.287e-17
9462.56 1.957e-17 7.91e-18
9464.107 1.422e-17 6.851e-18
9465.653 8.21e-18 7.155e-18
9467.2 1.272e-17 7.319e-18
9468.746 2.326e-17 7.343e-18
9470.293 1.673e-17 7.32e-18
9471.839 6.953e-19 1.14e-17
9473.386 4.225e-17 1.88e-17
9474.933 5.183e-17 2.152e-17
9476.479 -6.426e-18 2.174e-17
9478.026 9.254e-18 2.219e-17
9479.572 -1.247e-17 1.668e-17
9481.119 1.77e-17 1.043e-17
9482.666 1.501e-17 8.132e-18
9484.212 1.516e-17 6.858e-18
9485.759 1.719e-17 6.406e-18
9487.305 7.045e-18 6.273e-18
9488.852 1.122e-17 6.456e-18
9490.398 3.474e-17 7.488e-18
9491.945 4.932e-18 7.883e-18
9493.492 2.557e-17 9.16e-18
9495.038 7.705e-18 8.83e-18
9496.585 -1.75e-18 9.025e-18
9498.131 2.272e-17 1.408e-17
9499.678 -1.02e-17 1.917e-17
9501.224 2.979e-17 1.829e-17
9502.771 2.337e-17 1.452e-17
9504.317 2.914e-17 1.144e-17
9505.863 4.611e-18 7.426e-18
9507.41 2.396e-17 6.148e-18
9508.956 1.328e-17 5.814e-18
9510.503 1.86e-17 6.282e-18
9512.05 2.528e-17 6.669e-18
9513.596 1.174e-17 7.857e-18
9515.143 -2.798e-18 1.234e-17
9516.689 -1.642e-17 1.666e-17
9518.236 3.332e-17 1.878e-17
9519.782 3.951e-17 1.758e-17
9521.329 -7.557e-18 1.356e-17
9522.876 1.222e-18 8.959e-18
9524.421 1.164e-17 7.961e-18
9525.968 3.655e-17 7.934e-18
9527.514 -3.902e-18 7.462e-18
9529.061 1.66e-17 7.58e-18
9530.608 3.889e-18 6.837e-18
9532.154 1.478e-17 6.75e-18
9533.701 2.18e-17 7.984e-18
9535.247 6.448e-18 7.778e-18
9536.793 9.479e-18 7.668e-18
9538.339 1.207e-17 7.165e-18
9539.886 2.166e-17 7.307e-18
9541.433 1.124e-17 7.486e-18
9542.979 1.015e-17 8.155e-18
9544.526 1.67e-17 7.91e-18
9546.072 1.638e-17 7.301e-18
9547.618 1.717e-17 8.264e-18
9549.165 4.168e-17 1.171e-17
9550.711 -6.447e-18 1.269e-17
9552.258 3.633e-17 1.436e-17
9553.804 1.428e-17 1.504e-17
9555.351 1.397e-17 1.075e-17
9556.896 2.757e-17 8.642e-18
9558.443 8.049e-18 7.559e-18
9559.99 2.083e-17 7.567e-18
9561.536 2.637e-17 8.944e-18
9563.083 -3.21e-17 1.444e-17
9564.629 6.096e-17 2.035e-17
9566.175 1.1e-17 2.001e-17
9567.721 4.089e-17 1.889e-17
9569.268 1.763e-17 1.379e-17
9570.815 8.34e-18 8.533e-18
9572.36 6.317e-18 6.844e-18
9573.907 2.944e-17 6.668e-18
9575.453 2.289e-17 6.506e-18
9577.0 8.797e-18 7.142e-18
9578.547 3.891e-18 7.609e-18
9580.092 1.972e-17 7.905e-18
9581.639 6.878e-18 7.047e-18
9583.185 2.233e-17 6.824e-18
9584.732 1.021e-17 6.537e-18
9586.277 7.602e-18 7.363e-18
9587.824 1.147e-17 8.545e-18
9589.371 2.956e-17 8.846e-18
9590.917 1.754e-17 8.401e-18
9592.463 1.858e-17 8.28e-18
9594.009 1.162e-17 7.377e-18
9595.556 1.758e-17 7.044e-18
9597.102 1.2e-17 7.008e-18
9598.648 2.269e-17 6.912e-18
9600.195 8.483e-18 6.462e-18
9601.741 2.728e-17 7.218e-18
9603.287 9.619e-18 8.524e-18
9604.833 1.231e-18 1.033e-17
9606.38 1.401e-18 1.059e-17
9607.926 1.853e-17 9.887e-18
9609.472 1.559e-17 8.553e-18
9611.019 1.074e-17 7.306e-18
9612.564 1.05e-17 7.099e-18
9614.111 1.786e-17 6.998e-18
9615.657 3.074e-18 8.14e-18
9617.203 2.976e-17 1.062e-17
9618.75 9.84e-19 1.118e-17
9620.296 1.422e-17 1.259e-17
9621.842 3.143e-18 1.163e-17
9623.388 3.271e-18 9.288e-18
9624.935 5.512e-18 8.204e-18
9626.481 1.732e-17 7.87e-18
9628.027 1.384e-17 7.198e-18
9629.574 1.577e-17 6.682e-18
9631.119 -2.229e-18 6.464e-18
9632.666 9.463e-18 6.666e-18
9634.211 1.934e-17 7.397e-18
9635.758 1.304e-17 7.902e-18
9637.305 1.842e-17 8.042e-18
9638.85 9.251e-18 7.434e-18
9640.397 -2.212e-18 7.036e-18
9641.942 7.342e-18 7.013e-18
9643.489 1.013e-17 6.987e-18
9645.036 2.615e-17 7.915e-18
9646.581 1.25e-17 7.558e-18
9648.128 1.388e-17 6.8e-18
9649.673 9.492e-18 7.288e-18
9651.22 1.837e-17 7.465e-18
9652.765 8.063e-18 7.226e-18
9654.312 3.33e-17 7.916e-18
9655.858 1.008e-17 7.767e-18
9657.404 1.157e-17 7.773e-18
9658.951 1.14e-17 8.137e-18
9660.496 1.304e-17 8.745e-18
9662.043 2.84e-17 8.284e-18
9663.589 6.823e-18 8.619e-18
9665.135 2.346e-17 1.028e-17
9666.681 2.94e-17 1.126e-17
9668.227 5.266e-18 1.092e-17
9669.773 1.095e-17 1.093e-17
9671.319 3.633e-17 9.21e-18
9672.865 2.003e-17 8.185e-18
9674.412 2.263e-17 8.126e-18
9675.957 1.55e-17 8.63e-18
9677.504 6.132e-18 1.034e-17
9679.049 1.444e-18 1.315e-17
9680.596 6.629e-18 1.407e-17
9682.141 4.653e-18 1.26e-17
9683.688 -3.138e-18 1.07e-17
9685.234 1.185e-17 8.369e-18
9686.78 1.628e-17 8.602e-18
9688.326 7.102e-18 8.896e-18
9689.871 2.055e-17 9.479e-18
9691.418 1.895e-17 8.911e-18
9692.964 1.833e-17 8.299e-18
9694.51 4.149e-18 9.804e-18
9696.056 3.034e-17 1.358e-17
9697.602 9.819e-18 1.481e-17
9699.148 2.881e-17 1.554e-17
9700.693 2.91e-17 1.394e-17
9702.24 1.805e-17 9.87e-18
9703.786 7.245e-18 7.616e-18
9705.332 1.37e-17 7.686e-18
9706.878 8.404e-18 7.841e-18
9708.423 2.111e-17 1.039e-17
9709.97 1.539e-17 1.135e-17
9711.516 1.811e-17 1.11e-17
9713.062 2.166e-17 1.105e-17
9714.608 2.147e-17 1.048e-17
9716.153 2.518e-17 1.428e-17
9717.7 4.382e-17 1.647e-17
9719.245 -2.428e-17 1.674e-17
9720.791 3.921e-17 1.681e-17
9722.338 1.599e-17 1.27e-17
9723.883 1.575e-17 9.059e-18
9725.429 1.198e-17 7.916e-18
9726.975 8.041e-18 7.994e-18
9728.521 2.51e-17 8.246e-18
9730.067 3.219e-18 7.764e-18
9731.613 1.359e-17 8.604e-18
9733.159 2.267e-17 1.007e-17
9734.704 2.92e-17 1.252e-17
9736.251 2.64e-17 1.345e-17
9737.796 2.348e-17 1.241e-17
9739.342 1.542e-17 1.124e-17
9740.888 4.66e-18 9.351e-18
9742.434 1.661e-17 9.202e-18
9743.98 1.9e-17 9.531e-18
9745.525 1.367e-17 9.085e-18
9747.072 -3.683e-18 8.75e-18
9748.617 4.11e-18 8.08e-18
9750.163 1.531e-17 7.7e-18
9751.709 1.722e-17 7.596e-18
9753.255 3.105e-17 8.064e-18
9754.801 3.053e-17 8.347e-18
9756.346 1.409e-17 7.705e-18
9757.892 1.407e-17 7.841e-18
9759.438 1.021e-17 7.621e-18
9760.984 3.117e-17 7.783e-18
9762.53 4.862e-18 7.926e-18
9764.075 1.187e-17 7.554e-18
9765.621 3.047e-17 7.593e-18
9767.166 9.283e-18 7.491e-18
9768.713 2.234e-17 7.344e-18
9770.259 2.088e-17 7.395e-18
9771.804 7.726e-18 7.285e-18
9773.35 1.115e-17 7.324e-18
9774.895 1.079e-17 7.677e-18
9776.441 1.863e-17 7.814e-18
9777.988 8.981e-18 8.028e-18
9779.533 1.464e-17 8.073e-18
9781.079 8.102e-18 8.008e-18
9782.624 2.489e-18 8.399e-18
9784.17 8.594e-18 8.772e-18
9785.715 3.238e-18 1.198e-17
9787.261 3.613e-17 1.929e-17
9788.808 2.796e-17 2.293e-17
9790.353 3.6e-17 2.405e-17
9791.899 -1.313e-17 2.385e-17
9793.444 6.086e-18 1.739e-17
9794.99 -2.746e-18 1.225e-17
9796.535 1.991e-17 1.42e-17
9798.081 1.351e-17 1.527e-17
9799.627 1.471e-17 1.504e-17
9801.172 1.7e-17 1.369e-17
9802.718 1.993e-17 1.059e-17
9804.263 9.542e-19 9.28e-18
9805.809 1.952e-17 9.011e-18
9807.356 1.762e-17 9.617e-18
9808.901 1.76e-17 1.09e-17
9810.447 1.447e-17 1.135e-17
9811.992 1.882e-17 1.131e-17
9813.538 -4.356e-18 1.068e-17
9815.083 1.718e-17 9.808e-18
9816.629 2.643e-17 9.27e-18
9818.175 2.04e-17 9.072e-18
9819.72 5.467e-19 8.327e-18
9821.266 1.074e-17 8.319e-18
9822.811 1.612e-17 8.392e-18
9824.357 2.041e-17 8.879e-18
9825.903 1.865e-17 8.958e-18
9827.448 2.562e-17 9.187e-18
9828.994 1.444e-17 8.795e-18
9830.539 1.169e-17 8.408e-18
9832.085 3.562e-17 8.667e-18
9833.629 1.018e-17 7.981e-18
9835.175 9.451e-18 7.897e-18
9836.721 -2.981e-18 7.772e-18
9838.266 2.672e-17 7.961e-18
9839.812 4.024e-18 7.762e-18
9841.357 1.063e-17 8.114e-18
9842.903 -8.128e-18 7.997e-18
9844.449 9.777e-18 1.137e-17
9845.994 2.239e-17 1.503e-17
9847.54 3.557e-17 1.543e-17
9849.085 3.587e-17 1.47e-17
9850.631 3.592e-17 1.271e-17
9852.175 4.802e-18 9.042e-18
9853.721 1.557e-17 8.184e-18
9855.267 2.462e-17 8.322e-18
9856.812 9.535e-18 7.92e-18
9858.358 7.754e-18 7.791e-18
9859.903 1.675e-17 8.173e-18
9861.449 6.307e-19 7.678e-18
9862.993 1.059e-17 8.248e-18
9864.539 1.863e-17 8.68e-18
9866.085 9.552e-18 8.917e-18
9867.63 4.263e-17 1.421e-17
9869.176 7.175e-17 2.307e-17
9870.72 -1.045e-17 2.413e-17
9872.266 1.903e-17 2.382e-17
9873.812 3.893e-17 2.196e-17
9875.357 -4.93e-17 1.353e-17
9876.903 1.667e-17 9.595e-18
9878.447 4.808e-18 8.489e-18
9879.993 -9.822e-19 8.677e-18
9881.538 -3.067e-18 8.496e-18
9883.084 -1.915e-18 8.887e-18
9884.629 1.735e-17 9.42e-18
9886.174 2.664e-17 9.06e-18
9887.72 2.222e-17 8.781e-18
9889.265 8.714e-18 9.311e-18
9890.81 6.938e-19 1.242e-17
9892.356 -9.035e-18 1.525e-17
9893.901 1.508e-17 1.677e-17
9895.447 -3.9e-17 1.633e-17
9896.991 3.32e-18 1.393e-17
9898.537 9.678e-18 9.828e-18
9900.082 1.314e-17 8.754e-18
9901.627 4.951e-18 8.506e-18
9903.173 1.553e-17 8.455e-18
9904.718 1.419e-17 8.261e-18
9906.263 1.772e-17 8.478e-18
9907.808 2.103e-17 8.782e-18
9909.354 8.634e-18 1.057e-17
9910.898 3.502e-17 1.82e-17
9912.444 1.961e-17 2.301e-17
9913.99 -4.187e-17 2.374e-17
9915.534 3.34e-17 2.325e-17
9917.08 9.172e-18 1.816e-17
9918.624 -1.545e-17 1.124e-17
9920.17 2.173e-17 9.335e-18
9921.716 1.904e-17 8.985e-18
9923.26 -7.961e-19 8.468e-18
9924.806 2.211e-17 8.773e-18
9926.35 8.296e-18 8.522e-18
9927.896 3.015e-17 8.842e-18
9929.44 3.985e-18 8.497e-18
9930.986 1.777e-17 8.719e-18
9932.532 2.716e-17 8.979e-18
9934.076 1.713e-17 9.057e-18
9935.622 7.376e-18 9.243e-18
9937.166 8.709e-18 1.107e-17
9938.712 2.259e-17 1.536e-17
9940.257 2.256e-17 1.787e-17
9941.802 -1.81e-17 2.094e-17
9943.347 7.203e-18 2.477e-17
9944.892 3.064e-17 2.505e-17
9946.437 -2.626e-17 2.444e-17
9947.982 -6.761e-19 2.194e-17
9949.527 -3.498e-19 1.702e-17
9951.073 2.626e-17 1.355e-17
9952.617 2.331e-18 1.575e-17
9954.163 1.445e-17 1.971e-17
9955.707 3.904e-17 2.144e-17
9957.252 3.811e-17 2.265e-17
9958.798 1.534e-17 2.371e-17
9960.342 -3.922e-18 2.229e-17
9961.888 5.531e-18 2.143e-17
9963.432 -9.462e-18 1.977e-17
9964.978 6.838e-18 1.469e-17
9966.522 1.496e-17 1.116e-17
9968.067 6.617e-18 1.132e-17
9969.613 1.434e-17 1.336e-17
9971.157 1.732e-17 1.415e-17
9972.703 -1.346e-17 1.384e-17
9974.247 6.55e-18 1.333e-17
9975.792 7.648e-18 1.193e-17
9977.337 1.91e-19 1.096e-17
9978.882 -8.493e-18 1.054e-17
9980.427 4.703e-17 1.09e-17
9981.972 1.183e-17 9.859e-18
9983.517 2.436e-17 9.896e-18
9985.061 1.695e-17 9.397e-18
9986.607 1.769e-17 9.823e-18
9988.152 1.167e-18 9.387e-18
9989.696 1.814e-17 9.841e-18
9991.242 1.698e-17 9.732e-18
9992.786 1.073e-18 9.585e-18
9994.331 2.024e-17 1.002e-17
9995.875 7.982e-18 1.088e-17
9997.421 3.284e-17 1.298e-17
9998.966 4.601e-17 1.403e-17
10000.51 1.776e-17 1.394e-17
10002.055 5.352e-18 1.318e-17
10003.6 3.98e-17 1.182e-17
10005.145 1.65e-17 1.099e-17
10006.69 7.948e-18 1.175e-17
10008.234 4.528e-18 1.629e-17
10009.779 6.028e-17 2.619e-17
10011.324 -5.79e-18 3.039e-17
10012.869 2.82e-17 3.165e-17
10014.413 3.567e-17 2.964e-17
10015.958 -8.352e-18 2.226e-17
10017.503 9.711e-18 1.536e-17
10019.048 3.061e-17 1.29e-17
10020.593 1.489e-17 1.334e-17
10022.137 1.031e-17 1.671e-17
10023.682 2.451e-17 1.936e-17
10025.227 2.144e-17 1.986e-17
10026.771 2.219e-17 1.869e-17
10028.316 2.094e-17 1.587e-17
10029.861 2.402e-17 1.24e-17
10031.406 1.303e-17 1.129e-17
10032.95 2.418e-17 1.117e-17
10034.495 1.83e-17 1.131e-17
10036.04 6.986e-19 1.106e-17
10037.584 2.012e-17 1.132e-17
10039.129 2.306e-17 1.214e-17
10040.673 2.536e-17 1.393e-17
10042.218 1.639e-17 1.484e-17
10043.762 2.323e-17 1.494e-17
10045.307 6.888e-18 1.429e-17
10046.852 2.735e-17 1.274e-17
10048.396 1.225e-17 1.132e-17
10049.941 4.257e-19 1.087e-17
10051.485 3.148e-17 1.111e-17
10053.03 3.525e-17 1.143e-17
10054.575 1.041e-17 1.156e-17
10056.119 2.923e-17 1.332e-17
10057.664 8.441e-18 1.618e-17
10059.208 2.245e-17 1.809e-17
10060.753 4.949e-17 1.876e-17
10062.297 -1.67e-17 1.743e-17
10063.842 2.401e-18 1.577e-17
10065.387 1.026e-17 1.434e-17
10066.931 4.07e-17 1.482e-17
10068.476 -4.256e-18 1.54e-17
10070.02 -1.526e-19 1.549e-17
10071.565 2.703e-17 1.548e-17
10073.11 6.027e-18 1.463e-17
10074.654 3.623e-19 1.358e-17
10076.199 3.689e-17 1.339e-17
10077.742 2.237e-17 1.544e-17
10079.287 -2.626e-17 2.202e-17
10080.831 1.086e-17 2.661e-17
10082.376 2.841e-17 2.794e-17
10083.921 2.795e-17 2.646e-17
10085.465 -9.242e-18 2.141e-17
10087.01 2.985e-17 1.646e-17
10088.553 -3.777e-18 1.349e-17
10090.098 1.849e-17 1.325e-17
10091.643 2.52e-17 1.307e-17
10093.187 1.857e-17 1.336e-17
10094.732 1.249e-17 1.366e-17
10096.275 -5.012e-18 1.323e-17
10097.82 8.551e-18 1.4e-17
10099.364 2.608e-17 1.552e-17
10100.909 -1.113e-17 1.871e-17
10102.453 4.273e-18 2.064e-17
10103.997 1.159e-18 2.104e-17
10105.542 -1.589e-17 1.988e-17
10107.086 1.063e-17 1.728e-17
10108.63 -5.62e-18 1.467e-17
10110.174 3.396e-17 1.439e-17
10111.719 -1.853e-18 1.377e-17
10113.264 3.734e-17 1.452e-17
10114.807 1.267e-17 1.431e-17
10116.352 -7.719e-18 1.387e-17
10117.896 1.536e-17 1.504e-17
10119.44 5.047e-17 1.859e-17
10120.985 5.896e-17 2.65e-17
10122.529 3.805e-17 3.149e-17
10124.073 -2.935e-17 3.278e-17
10125.617 -3.906e-17 3.107e-17
10127.162 -4.565e-17 2.552e-17
10128.705 -2.348e-17 1.908e-17
10130.25 -2.009e-17 1.638e-17
10131.794 2.612e-17 1.681e-17
10133.338 1.353e-17 1.63e-17
10134.883 1.98e-17 1.643e-17
10136.426 -1.992e-17 1.559e-17
10137.971 -2.136e-18 1.585e-17
10139.515 -4.075e-18 1.608e-17
10141.059 -4.375e-18 1.673e-17
10142.603 1.058e-17 1.731e-17
10144.147 1.683e-17 1.807e-17
10145.691 5.539e-18 1.855e-17
10147.235 -1.201e-17 1.885e-17
10148.78 8.777e-18 2.018e-17
10150.324 -4.775e-17 2.257e-17
10151.868 1.69e-17 2.495e-17
10153.412 4.947e-18 2.566e-17
10154.956 -1.399e-17 2.473e-17
10156.5 -3.448e-18 2.361e-17
10158.044 1.435e-17 2.224e-17
10159.588 8.43e-18 2.153e-17
10161.132 3.326e-17 2.153e-17
10162.676 -6.507e-19 2.08e-17
10164.22 -2.613e-18 2.051e-17
10165.764 8.943e-18 2.11e-17
10167.308 -3.484e-17 2.365e-17
10168.852 -2.237e-17 3.115e-17
10170.396 5.613e-18 3.749e-17
10171.94 7.766e-17 3.989e-17
10173.484 -3.783e-17 3.751e-17
10175.028 -1.657e-17 3.198e-17
10176.571 3.475e-17 2.605e-17
10178.116 2.423e-18 2.345e-17
10179.66 -2.561e-17 2.33e-17
10181.203 3.446e-17 2.443e-17
10182.748 -3.518e-17 2.39e-17
10184.291 3.514e-17 2.371e-17
10185.835 -9.883e-18 2.599e-17
10187.38 2.805e-17 3.2e-17
10188.923 -3.551e-18 3.508e-17
10190.467 -3.857e-17 3.56e-17
10192.011 6.294e-17 3.418e-17
10193.555 -2.77e-17 2.852e-17
10195.098 2.221e-17 2.454e-17
10196.642 4.669e-17 2.295e-17
10198.187 3.087e-17 2.264e-17
10199.73 2.806e-17 2.496e-17
10201.274 -2.043e-18 2.745e-17
10202.817 -5.81e-17 2.846e-17
10204.362 -5.491e-17 2.965e-17
10205.906 -5.899e-17 3.043e-17
10207.449 1.15e-16 3.545e-17
10208.993 -2.197e-17 4.041e-17
10210.536 9.401e-17 4.384e-17
10212.081 5.32e-17 4.372e-17
10213.624 1.483e-18 3.87e-17
10215.168 4.658e-17 3.296e-17
10216.712 1.657e-17 2.701e-17
10218.255 -3.291e-17 2.341e-17
10219.799 5.049e-19 2.392e-17
10221.342 -1.254e-17 2.511e-17
10222.887 6.786e-17 3.045e-17
10224.431 3.232e-17 3.3e-17
10225.974 -3.542e-17 3.438e-17
10227.518 1.522e-17 3.645e-17
10229.061 -6.782e-17 3.576e-17
10230.605 3.433e-17 3.498e-17
10232.148 -2.98e-18 3.296e-17
10233.692 -6.977e-17 2.934e-17
10235.236 5.487e-17 2.834e-17
10236.779 -1.103e-17 2.54e-17
